EXPLAIN
TAG	PWR800_CHARGE
TITLE	LABEL	Charge Curve	Test Identifier
DATE	LABEL	3/12/2013	Date
TIME	LABEL	16:42:33	Time
NOTES	NOTES	1	Notes...
	1st charg
PSTAT	PSTAT	IFC1000-04095	Potentiostat
CAPACITY	QUANT	1.00000E+000	Capacity (A-hr)
CELLTYPE	SELECTOR	0	Cell Type
WORKINGCONNECTION	SELECTOR	0	Working Connection
MAXCHARGETIME	VARIABLEANDUNITS	3.45600E+005	s	4.00000E+000	day(s)	Max Charge Time
CHARGECURRENT	QUANT	6.91100E-004	Charge Current (A)
VOLTAGEFINISH	TWOPARAM	F	1.00000E-003	3.60000E+003	Voltage Finish	I (A) <	Max Time(s)
SAMPLETIME	QUANT	5.00000E+000	Sample Period (s)
CHARGESTOPAT1	MULTIPARAM	2	4.30000E+000	Stop At 1	|Voltage| > Limit	V
CHARGESTOPAT2	MULTIPARAM	0	0.00000E+000	Stop At 2	None	N/A
IRCOMP	TOGGLE	F	IR Measure
EOC	QUANT	1.635438	Open Circuit (V)
SEQUENCER	TOGGLE	TRUE	Run as Sequence
PSTATMODEL	IQUANT	48	Pstat Model
PSTATSECTION	LABEL	IFC1000-04095	Pstat Section
PSTATSERIALNO	LABEL	04095	Pstat Serial Number
CTRLMODE	IQUANT	0	Control Mode
IESTAB	IQUANT	0	I/E Stability
CASPEED	IQUANT	2	Control Amp Speed
CONVENTION	IQUANT	1	Current Convention
ICHRANGE	IQUANT	2	Ich Range
ICHRANGEMODE	TOGGLE	T	Ich Auto Range
ICHOFFSETENABLE	TOGGLE	F	Ich Offset Enable
ICHOFFSET	QUANT	0	Ich Offset (V)
ICHFILTER	IQUANT	1	Ich Filter
VCHRANGE	IQUANT	3	Vch Range
VCHRANGEMODE	TOGGLE	T	Vch Auto Range
VCHOFFSETENABLE	TOGGLE	F	Vch Offset Enable
VCHOFFSET	QUANT	0	Vch Offset (V)
VCHFILTER	IQUANT	1	Vch Filter
IERANGELOWERLIMIT	IQUANT	9	I/E Range Lower Limit
IERANGEMODE	TOGGLE	F	I/E AutoRange
IERANGE	IQUANT	10	I/E Range
ACHSELECT	IQUANT	4	Ach Select
CABLEID	IQUANT	14	Cable ID
DCCALDATE	LABEL	7/25/2013	DC Calibration Date
ACCALDATE	LABEL	7/25/2013	AC Calibration Date
FRAMEWORKVERSION	QUANT	6.11	Framework Version
INSTRUMENTVERSION	LABEL	3.12	Instrument Version
CURVE	TABLE	1483
	Pt	T	Vf	Im	Vu	Pwr	Sig	Ach	Temp	IERange	Over
	#	s	V	A	V	W	V	V	deg C	#	bits
	0	5	1.70146E+000	6.90668E-004	0.00000E+000	1.17514E-003	2.07950E+000	0.00000E+000	0.00000E+000	9	...........
	1	10	1.72462E+000	6.90667E-004	0.00000E+000	1.19114E-003	2.07950E+000	0.00000E+000	0.00000E+000	9	...........
	2	15	1.73848E+000	6.90669E-004	0.00000E+000	1.20071E-003	2.07950E+000	0.00000E+000	0.00000E+000	9	...........
	3	20	1.74763E+000	6.90669E-004	0.00000E+000	1.20703E-003	2.07950E+000	0.00000E+000	0.00000E+000	9	...........
	4	25	1.75603E+000	6.90668E-004	0.00000E+000	1.21284E-003	2.07950E+000	0.00000E+000	0.00000E+000	9	...........
	5	30	1.76314E+000	6.90668E-004	0.00000E+000	1.21774E-003	2.07950E+000	0.00000E+000	0.00000E+000	9	...........
	6	35	1.76912E+000	6.90669E-004	0.00000E+000	1.22187E-003	2.07950E+000	0.00000E+000	0.00000E+000	9	...........
	7	40	1.77308E+000	6.90670E-004	0.00000E+000	1.22461E-003	2.07950E+000	0.00000E+000	0.00000E+000	9	...........
	8	45	1.77818E+000	6.90670E-004	0.00000E+000	1.22814E-003	2.07950E+000	0.00000E+000	0.00000E+000	9	...........
	9	50	1.78282E+000	6.90671E-004	0.00000E+000	1.23134E-003	2.07950E+000	0.00000E+000	0.00000E+000	9	...........
	10	55	1.78716E+000	6.90669E-004	0.00000E+000	1.23433E-003	2.07950E+000	0.00000E+000	0.00000E+000	9	...........
	11	60	1.79123E+000	6.90671E-004	0.00000E+000	1.23715E-003	2.07950E+000	0.00000E+000	0.00000E+000	9	...........
	12	65	1.79514E+000	6.90671E-004	0.00000E+000	1.23985E-003	2.07950E+000	0.00000E+000	0.00000E+000	9	...........
	13	70	1.79884E+000	6.90671E-004	0.00000E+000	1.24240E-003	2.07950E+000	0.00000E+000	0.00000E+000	9	...........
	14	75	1.80235E+000	6.90671E-004	0.00000E+000	1.24483E-003	2.07950E+000	0.00000E+000	0.00000E+000	9	...........
	15	80	1.80578E+000	6.90670E-004	0.00000E+000	1.24720E-003	2.07950E+000	0.00000E+000	0.00000E+000	9	...........
	16	85	1.80890E+000	6.90671E-004	0.00000E+000	1.24936E-003	2.07950E+000	0.00000E+000	0.00000E+000	9	...........
	17	90	1.81199E+000	6.90670E-004	0.00000E+000	1.25149E-003	2.07950E+000	0.00000E+000	0.00000E+000	9	...........
	18	95	1.81518E+000	6.90671E-004	0.00000E+000	1.25369E-003	2.07950E+000	0.00000E+000	0.00000E+000	9	...........
	19	100	1.81830E+000	6.90672E-004	0.00000E+000	1.25585E-003	2.07950E+000	0.00000E+000	0.00000E+000	9	...........
	20	105	1.82139E+000	6.90672E-004	0.00000E+000	1.25798E-003	2.07950E+000	0.00000E+000	0.00000E+000	9	...........
	21	110	1.82441E+000	6.90670E-004	0.00000E+000	1.26007E-003	2.07950E+000	0.00000E+000	0.00000E+000	9	...........
	22	115	1.82743E+000	6.90671E-004	0.00000E+000	1.26215E-003	2.07950E+000	0.00000E+000	0.00000E+000	9	...........
	23	120	1.83043E+000	6.90672E-004	0.00000E+000	1.26423E-003	2.07950E+000	0.00000E+000	0.00000E+000	9	...........
	24	125	1.83337E+000	6.90671E-004	0.00000E+000	1.26626E-003	2.07950E+000	0.00000E+000	0.00000E+000	9	...........
	25	130	1.83631E+000	6.90672E-004	0.00000E+000	1.26829E-003	2.07950E+000	0.00000E+000	0.00000E+000	9	...........
	26	135	1.83919E+000	6.90671E-004	0.00000E+000	1.27028E-003	2.07950E+000	0.00000E+000	0.00000E+000	9	...........
	27	140	1.84206E+000	6.90671E-004	0.00000E+000	1.27226E-003	2.07950E+000	0.00000E+000	0.00000E+000	9	...........
	28	145	1.84491E+000	6.90671E-004	0.00000E+000	1.27422E-003	2.07950E+000	0.00000E+000	0.00000E+000	9	...........
	29	150	1.84775E+000	6.90671E-004	0.00000E+000	1.27618E-003	2.07950E+000	0.00000E+000	0.00000E+000	9	...........
	30	155	1.85053E+000	6.90672E-004	0.00000E+000	1.27811E-003	2.07950E+000	0.00000E+000	0.00000E+000	9	...........
	31	160	1.85320E+000	6.90673E-004	0.00000E+000	1.27996E-003	2.07950E+000	0.00000E+000	0.00000E+000	9	...........
	32	165	1.85595E+000	6.90673E-004	0.00000E+000	1.28185E-003	2.07950E+000	0.00000E+000	0.00000E+000	9	...........
	33	170	1.85866E+000	6.90672E-004	0.00000E+000	1.28372E-003	2.07950E+000	0.00000E+000	0.00000E+000	9	...........
	34	175	1.86135E+000	6.90671E-004	0.00000E+000	1.28558E-003	2.07950E+000	0.00000E+000	0.00000E+000	9	...........
	35	180	1.86396E+000	6.90671E-004	0.00000E+000	1.28738E-003	2.07950E+000	0.00000E+000	0.00000E+000	9	...........
	36	185	1.86656E+000	6.90672E-004	0.00000E+000	1.28918E-003	2.07950E+000	0.00000E+000	0.00000E+000	9	...........
	37	190	1.86912E+000	6.90670E-004	0.00000E+000	1.29095E-003	2.07950E+000	0.00000E+000	0.00000E+000	9	...........
	38	195	1.87163E+000	6.90670E-004	0.00000E+000	1.29268E-003	2.07950E+000	0.00000E+000	0.00000E+000	9	...........
	39	200	1.87412E+000	6.90671E-004	0.00000E+000	1.29440E-003	2.07950E+000	0.00000E+000	0.00000E+000	9	...........
	40	205	1.87643E+000	6.90671E-004	0.00000E+000	1.29600E-003	2.07950E+000	0.00000E+000	0.00000E+000	9	...........
	41	210	1.87879E+000	6.90671E-004	0.00000E+000	1.29762E-003	2.07950E+000	0.00000E+000	0.00000E+000	9	...........
	42	215	1.88111E+000	6.90669E-004	0.00000E+000	1.29923E-003	2.07950E+000	0.00000E+000	0.00000E+000	9	...........
	43	220	1.88314E+000	6.90668E-004	0.00000E+000	1.30062E-003	2.07950E+000	0.00000E+000	0.00000E+000	9	...........
	44	225	1.88530E+000	6.90670E-004	0.00000E+000	1.30212E-003	2.07950E+000	0.00000E+000	0.00000E+000	9	...........
	45	230	1.88744E+000	6.90671E-004	0.00000E+000	1.30360E-003	2.07950E+000	0.00000E+000	0.00000E+000	9	...........
	46	235	1.88957E+000	6.90672E-004	0.00000E+000	1.30507E-003	2.07950E+000	0.00000E+000	0.00000E+000	9	...........
	47	240	1.89163E+000	6.90671E-004	0.00000E+000	1.30649E-003	2.07950E+000	0.00000E+000	0.00000E+000	9	...........
	48	245	1.89367E+000	6.90671E-004	0.00000E+000	1.30790E-003	2.07950E+000	0.00000E+000	0.00000E+000	9	...........
	49	250	1.89567E+000	6.90671E-004	0.00000E+000	1.30928E-003	2.07950E+000	0.00000E+000	0.00000E+000	9	...........
	50	255	1.89765E+000	6.90670E-004	0.00000E+000	1.31065E-003	2.07950E+000	0.00000E+000	0.00000E+000	9	...........
	51	260	1.89961E+000	6.90671E-004	0.00000E+000	1.31201E-003	2.07950E+000	0.00000E+000	0.00000E+000	9	...........
	52	265	1.90153E+000	6.90671E-004	0.00000E+000	1.31333E-003	2.07950E+000	0.00000E+000	0.00000E+000	9	...........
	53	270	1.90323E+000	6.90671E-004	0.00000E+000	1.31450E-003	2.07950E+000	0.00000E+000	0.00000E+000	9	...........
	54	275	1.90504E+000	6.90671E-004	0.00000E+000	1.31575E-003	2.07950E+000	0.00000E+000	0.00000E+000	9	...........
	55	280	1.90691E+000	6.90670E-004	0.00000E+000	1.31705E-003	2.07950E+000	0.00000E+000	0.00000E+000	9	...........
	56	285	1.90874E+000	6.90671E-004	0.00000E+000	1.31831E-003	2.07950E+000	0.00000E+000	0.00000E+000	9	...........
	57	290	1.91060E+000	6.90669E-004	0.00000E+000	1.31959E-003	2.07950E+000	0.00000E+000	0.00000E+000	9	...........
	58	295	1.91243E+000	6.90671E-004	0.00000E+000	1.32086E-003	2.07950E+000	0.00000E+000	0.00000E+000	9	...........
	59	300	1.91424E+000	6.90671E-004	0.00000E+000	1.32211E-003	2.07950E+000	0.00000E+000	0.00000E+000	9	...........
	60	305	1.91605E+000	6.90671E-004	0.00000E+000	1.32336E-003	2.07950E+000	0.00000E+000	0.00000E+000	9	...........
	61	310	1.91786E+000	6.90670E-004	0.00000E+000	1.32461E-003	2.07950E+000	0.00000E+000	0.00000E+000	9	...........
	62	315	1.91963E+000	6.90670E-004	0.00000E+000	1.32583E-003	2.07950E+000	0.00000E+000	0.00000E+000	9	...........
	63	320	1.92138E+000	6.90670E-004	0.00000E+000	1.32704E-003	2.07950E+000	0.00000E+000	0.00000E+000	9	...........
	64	325	1.92316E+000	6.90671E-004	0.00000E+000	1.32827E-003	2.07950E+000	0.00000E+000	0.00000E+000	9	...........
	65	330	1.92432E+000	6.90672E-004	0.00000E+000	1.32908E-003	2.07950E+000	0.00000E+000	0.00000E+000	9	...........
	66	335	1.92599E+000	6.90670E-004	0.00000E+000	1.33022E-003	2.07950E+000	0.00000E+000	0.00000E+000	9	...........
	67	340	1.92772E+000	6.90671E-004	0.00000E+000	1.33142E-003	2.07950E+000	0.00000E+000	0.00000E+000	9	...........
	68	345	1.92945E+000	6.90669E-004	0.00000E+000	1.33261E-003	2.07950E+000	0.00000E+000	0.00000E+000	9	...........
	69	350	1.93117E+000	6.90671E-004	0.00000E+000	1.33380E-003	2.07950E+000	0.00000E+000	0.00000E+000	9	...........
	70	355	1.93290E+000	6.90671E-004	0.00000E+000	1.33500E-003	2.07950E+000	0.00000E+000	0.00000E+000	9	...........
	71	360	1.93463E+000	6.90671E-004	0.00000E+000	1.33619E-003	2.07950E+000	0.00000E+000	0.00000E+000	9	...........
	72	365	1.93634E+000	6.90671E-004	0.00000E+000	1.33737E-003	2.07950E+000	0.00000E+000	0.00000E+000	9	...........
	73	370	1.93806E+000	6.90671E-004	0.00000E+000	1.33856E-003	2.07950E+000	0.00000E+000	0.00000E+000	9	...........
	74	375	1.93980E+000	6.90671E-004	0.00000E+000	1.33976E-003	2.07950E+000	0.00000E+000	0.00000E+000	9	...........
	75	380	1.94153E+000	6.90670E-004	0.00000E+000	1.34095E-003	2.07950E+000	0.00000E+000	0.00000E+000	9	...........
	76	385	1.94326E+000	6.90669E-004	0.00000E+000	1.34215E-003	2.07950E+000	0.00000E+000	0.00000E+000	9	...........
	77	390	1.94500E+000	6.90671E-004	0.00000E+000	1.34336E-003	2.07950E+000	0.00000E+000	0.00000E+000	9	...........
	78	395	1.94673E+000	6.90671E-004	0.00000E+000	1.34455E-003	2.07950E+000	0.00000E+000	0.00000E+000	9	...........
	79	400	1.94850E+000	6.90669E-004	0.00000E+000	1.34577E-003	2.07950E+000	0.00000E+000	0.00000E+000	9	...........
	80	405	1.95028E+000	6.90670E-004	0.00000E+000	1.34700E-003	2.07950E+000	0.00000E+000	0.00000E+000	9	...........
	81	410	1.95208E+000	6.90671E-004	0.00000E+000	1.34824E-003	2.07950E+000	0.00000E+000	0.00000E+000	9	...........
	82	415	1.95383E+000	6.90670E-004	0.00000E+000	1.34945E-003	2.07950E+000	0.00000E+000	0.00000E+000	9	...........
	83	420	1.95564E+000	6.90670E-004	0.00000E+000	1.35070E-003	2.07950E+000	0.00000E+000	0.00000E+000	9	...........
	84	425	1.95744E+000	6.90671E-004	0.00000E+000	1.35195E-003	2.07950E+000	0.00000E+000	0.00000E+000	9	...........
	85	430	1.95928E+000	6.90670E-004	0.00000E+000	1.35322E-003	2.07950E+000	0.00000E+000	0.00000E+000	9	...........
	86	435	1.96112E+000	6.90670E-004	0.00000E+000	1.35449E-003	2.07950E+000	0.00000E+000	0.00000E+000	9	...........
	87	440	1.96298E+000	6.90672E-004	0.00000E+000	1.35578E-003	2.07950E+000	0.00000E+000	0.00000E+000	9	...........
	88	445	1.96485E+000	6.90672E-004	0.00000E+000	1.35707E-003	2.07950E+000	0.00000E+000	0.00000E+000	9	...........
	89	450	1.96671E+000	6.90672E-004	0.00000E+000	1.35835E-003	2.07950E+000	0.00000E+000	0.00000E+000	9	...........
	90	455	1.96860E+000	6.90673E-004	0.00000E+000	1.35966E-003	2.07950E+000	0.00000E+000	0.00000E+000	9	...........
	91	460	1.97049E+000	6.90672E-004	0.00000E+000	1.36096E-003	2.07950E+000	0.00000E+000	0.00000E+000	9	...........
	92	465	1.97238E+000	6.90673E-004	0.00000E+000	1.36227E-003	2.07950E+000	0.00000E+000	0.00000E+000	9	...........
	93	470	1.97431E+000	6.90671E-004	0.00000E+000	1.36360E-003	2.07950E+000	0.00000E+000	0.00000E+000	9	...........
	94	475	1.97624E+000	6.90672E-004	0.00000E+000	1.36494E-003	2.07950E+000	0.00000E+000	0.00000E+000	9	...........
	95	480	1.97817E+000	6.90671E-004	0.00000E+000	1.36626E-003	2.07950E+000	0.00000E+000	0.00000E+000	9	...........
	96	485	1.97993E+000	6.90672E-004	0.00000E+000	1.36748E-003	2.07950E+000	0.00000E+000	0.00000E+000	9	...........
	97	490	1.98175E+000	6.90670E-004	0.00000E+000	1.36874E-003	2.07950E+000	0.00000E+000	0.00000E+000	9	...........
	98	495	1.98373E+000	6.90671E-004	0.00000E+000	1.37010E-003	2.07950E+000	0.00000E+000	0.00000E+000	9	...........
	99	500	1.98572E+000	6.90671E-004	0.00000E+000	1.37148E-003	2.07950E+000	0.00000E+000	0.00000E+000	9	...........
	100	505	1.98782E+000	6.90671E-004	0.00000E+000	1.37293E-003	2.07950E+000	0.00000E+000	0.00000E+000	9	...........
	101	510	1.98997E+000	6.90672E-004	0.00000E+000	1.37442E-003	2.07950E+000	0.00000E+000	0.00000E+000	9	...........
	102	515	1.99204E+000	6.90673E-004	0.00000E+000	1.37585E-003	2.07950E+000	0.00000E+000	0.00000E+000	9	...........
	103	520	1.99417E+000	6.90672E-004	0.00000E+000	1.37732E-003	2.07950E+000	0.00000E+000	0.00000E+000	9	...........
	104	525	1.99632E+000	6.90673E-004	0.00000E+000	1.37880E-003	2.07950E+000	0.00000E+000	0.00000E+000	9	...........
	105	530	1.99846E+000	6.90671E-004	0.00000E+000	1.38028E-003	2.07950E+000	0.00000E+000	0.00000E+000	9	...........
	106	535	2.00066E+000	6.90672E-004	0.00000E+000	1.38180E-003	2.07950E+000	0.00000E+000	0.00000E+000	9	...........
	107	540	2.00278E+000	6.90672E-004	0.00000E+000	1.38327E-003	2.07950E+000	0.00000E+000	0.00000E+000	9	...........
	108	545	2.00496E+000	6.90672E-004	0.00000E+000	1.38477E-003	2.07950E+000	0.00000E+000	0.00000E+000	9	...........
	109	550	2.00728E+000	6.90672E-004	0.00000E+000	1.38637E-003	2.07950E+000	0.00000E+000	0.00000E+000	9	...........
	110	555	2.00964E+000	6.90673E-004	0.00000E+000	1.38800E-003	2.07950E+000	0.00000E+000	0.00000E+000	9	...........
	111	560	2.01205E+000	6.90671E-004	0.00000E+000	1.38967E-003	2.07950E+000	0.00000E+000	0.00000E+000	9	...........
	112	565	2.01455E+000	6.90673E-004	0.00000E+000	1.39139E-003	2.07950E+000	0.00000E+000	0.00000E+000	9	...........
	113	570	2.01708E+000	6.90673E-004	0.00000E+000	1.39314E-003	2.07950E+000	0.00000E+000	0.00000E+000	9	...........
	114	575	2.01969E+000	6.90671E-004	0.00000E+000	1.39494E-003	2.07950E+000	0.00000E+000	0.00000E+000	9	...........
	115	580	2.02239E+000	6.90672E-004	0.00000E+000	1.39681E-003	2.07950E+000	0.00000E+000	0.00000E+000	9	...........
	116	585	2.02518E+000	6.90672E-004	0.00000E+000	1.39874E-003	2.07950E+000	0.00000E+000	0.00000E+000	9	...........
	117	590	2.02807E+000	6.90672E-004	0.00000E+000	1.40073E-003	2.07950E+000	0.00000E+000	0.00000E+000	9	...........
	118	595	2.03103E+000	6.90672E-004	0.00000E+000	1.40277E-003	2.07950E+000	0.00000E+000	0.00000E+000	9	...........
	119	600	2.03410E+000	6.90672E-004	0.00000E+000	1.40489E-003	2.07950E+000	0.00000E+000	0.00000E+000	9	...........
	120	605	2.03725E+000	6.90672E-004	0.00000E+000	1.40707E-003	2.07950E+000	0.00000E+000	0.00000E+000	9	...........
	121	610	2.04055E+000	6.90671E-004	0.00000E+000	1.40935E-003	2.07950E+000	0.00000E+000	0.00000E+000	9	...........
	122	615	2.04395E+000	6.90670E-004	0.00000E+000	1.41169E-003	2.07950E+000	0.00000E+000	0.00000E+000	9	...........
	123	620	2.04748E+000	6.90672E-004	0.00000E+000	1.41414E-003	2.07950E+000	0.00000E+000	0.00000E+000	9	...........
	124	625	2.05116E+000	6.90672E-004	0.00000E+000	1.41668E-003	2.07950E+000	0.00000E+000	0.00000E+000	9	...........
	125	630	2.05497E+000	6.90672E-004	0.00000E+000	1.41931E-003	2.07950E+000	0.00000E+000	0.00000E+000	9	...........
	126	635	2.05894E+000	6.90673E-004	0.00000E+000	1.42206E-003	2.07950E+000	0.00000E+000	0.00000E+000	9	...........
	127	640	2.06306E+000	6.90671E-004	0.00000E+000	1.42490E-003	2.07950E+000	0.00000E+000	0.00000E+000	9	...........
	128	645	2.06735E+000	6.90672E-004	0.00000E+000	1.42786E-003	2.07950E+000	0.00000E+000	0.00000E+000	9	...........
	129	650	2.07182E+000	6.90672E-004	0.00000E+000	1.43095E-003	2.07950E+000	0.00000E+000	0.00000E+000	9	...........
	130	655	2.07650E+000	6.90671E-004	0.00000E+000	1.43418E-003	2.07950E+000	0.00000E+000	0.00000E+000	9	...........
	131	660	2.08135E+000	6.90671E-004	0.00000E+000	1.43753E-003	2.07950E+000	0.00000E+000	0.00000E+000	9	...........
	132	665	2.08639E+000	6.90674E-004	0.00000E+000	1.44102E-003	2.07950E+000	0.00000E+000	0.00000E+000	9	...........
	133	670	2.09166E+000	6.90673E-004	0.00000E+000	1.44465E-003	2.07950E+000	0.00000E+000	0.00000E+000	9	...........
	134	675	2.09719E+000	6.90672E-004	0.00000E+000	1.44847E-003	2.07950E+000	0.00000E+000	0.00000E+000	9	...........
	135	680	2.10284E+000	6.90672E-004	0.00000E+000	1.45238E-003	2.07950E+000	0.00000E+000	0.00000E+000	9	...........
	136	685	2.10873E+000	6.90672E-004	0.00000E+000	1.45644E-003	2.07950E+000	0.00000E+000	0.00000E+000	9	...........
	137	690	2.11487E+000	6.90671E-004	0.00000E+000	1.46068E-003	2.07950E+000	0.00000E+000	0.00000E+000	9	...........
	138	695	2.12129E+000	6.90671E-004	0.00000E+000	1.46511E-003	2.07950E+000	0.00000E+000	0.00000E+000	9	...........
	139	700	2.12803E+000	6.90671E-004	0.00000E+000	1.46977E-003	2.07950E+000	0.00000E+000	0.00000E+000	9	...........
	140	705	2.13499E+000	6.90672E-004	0.00000E+000	1.47458E-003	2.07950E+000	0.00000E+000	0.00000E+000	9	...........
	141	710	2.14246E+000	6.90671E-004	0.00000E+000	1.47973E-003	2.07950E+000	0.00000E+000	0.00000E+000	9	...........
	142	715	2.15042E+000	6.90673E-004	0.00000E+000	1.48524E-003	2.07950E+000	0.00000E+000	0.00000E+000	9	...........
	143	720	2.15890E+000	6.90672E-004	0.00000E+000	1.49109E-003	2.07950E+000	0.00000E+000	0.00000E+000	9	...........
	144	725	2.16798E+000	6.90672E-004	0.00000E+000	1.49736E-003	2.07950E+000	0.00000E+000	0.00000E+000	9	...........
	145	730	2.17768E+000	6.90672E-004	0.00000E+000	1.50406E-003	2.07950E+000	0.00000E+000	0.00000E+000	9	...........
	146	735	2.18814E+000	6.90672E-004	0.00000E+000	1.51129E-003	2.07950E+000	0.00000E+000	0.00000E+000	9	...........
	147	740	2.19938E+000	6.90672E-004	0.00000E+000	1.51905E-003	2.07950E+000	0.00000E+000	0.00000E+000	9	...........
	148	745	2.21158E+000	6.90674E-004	0.00000E+000	1.52748E-003	2.07950E+000	0.00000E+000	0.00000E+000	9	...........
	149	750	2.22485E+000	6.90673E-004	0.00000E+000	1.53665E-003	2.07950E+000	0.00000E+000	0.00000E+000	9	...........
	150	755	2.23932E+000	6.90673E-004	0.00000E+000	1.54664E-003	2.07950E+000	0.00000E+000	0.00000E+000	9	...........
	151	760	2.25512E+000	6.90671E-004	0.00000E+000	1.55754E-003	2.07950E+000	0.00000E+000	0.00000E+000	9	...........
	152	765	2.27236E+000	6.90672E-004	0.00000E+000	1.56946E-003	2.07950E+000	0.00000E+000	0.00000E+000	9	...........
	153	770	2.29127E+000	6.90672E-004	0.00000E+000	1.58251E-003	2.07950E+000	0.00000E+000	0.00000E+000	9	...........
	154	775	2.31196E+000	6.90671E-004	0.00000E+000	1.59681E-003	2.07950E+000	0.00000E+000	0.00000E+000	9	...........
	155	780	2.33457E+000	6.90671E-004	0.00000E+000	1.61242E-003	2.07950E+000	0.00000E+000	0.00000E+000	9	...........
	156	785	2.35923E+000	6.90672E-004	0.00000E+000	1.62945E-003	2.07950E+000	0.00000E+000	0.00000E+000	9	...........
	157	790	2.38594E+000	6.90671E-004	0.00000E+000	1.64790E-003	2.07950E+000	0.00000E+000	0.00000E+000	9	...........
	158	795	2.41469E+000	6.90671E-004	0.00000E+000	1.66776E-003	2.07950E+000	0.00000E+000	0.00000E+000	9	...........
	159	800	2.44531E+000	6.90671E-004	0.00000E+000	1.68891E-003	2.07950E+000	0.00000E+000	0.00000E+000	9	...........
	160	805	2.47754E+000	6.90672E-004	0.00000E+000	1.71117E-003	2.07950E+000	0.00000E+000	0.00000E+000	9	...........
	161	810	2.51114E+000	6.90670E-004	0.00000E+000	1.73437E-003	2.07950E+000	0.00000E+000	0.00000E+000	9	...........
	162	815	2.54583E+000	6.90669E-004	0.00000E+000	1.75833E-003	2.07950E+000	0.00000E+000	0.00000E+000	9	...........
	163	820	2.58137E+000	6.90670E-004	0.00000E+000	1.78288E-003	2.07950E+000	0.00000E+000	0.00000E+000	9	...........
	164	825	2.61759E+000	6.90671E-004	0.00000E+000	1.80789E-003	2.07950E+000	0.00000E+000	0.00000E+000	9	...........
	165	830	2.65447E+000	6.90671E-004	0.00000E+000	1.83336E-003	2.07950E+000	0.00000E+000	0.00000E+000	9	...........
	166	835	2.69207E+000	6.90672E-004	0.00000E+000	1.85934E-003	2.07950E+000	0.00000E+000	0.00000E+000	9	...........
	167	840	2.72991E+000	6.90673E-004	0.00000E+000	1.88547E-003	2.07950E+000	0.00000E+000	0.00000E+000	9	...........
	168	845	2.76813E+000	6.90671E-004	0.00000E+000	1.91187E-003	2.07950E+000	0.00000E+000	0.00000E+000	9	...........
	169	850	2.80661E+000	6.90672E-004	0.00000E+000	1.93845E-003	2.07950E+000	0.00000E+000	0.00000E+000	9	...........
	170	855	2.84518E+000	6.90671E-004	0.00000E+000	1.96508E-003	2.07950E+000	0.00000E+000	0.00000E+000	9	...........
	171	860	2.88362E+000	6.90670E-004	0.00000E+000	1.99163E-003	2.07950E+000	0.00000E+000	0.00000E+000	9	...........
	172	865	2.92143E+000	6.90671E-004	0.00000E+000	2.01774E-003	2.07950E+000	0.00000E+000	0.00000E+000	9	...........
	173	870	2.95839E+000	6.90671E-004	0.00000E+000	2.04327E-003	2.07950E+000	0.00000E+000	0.00000E+000	9	...........
	174	875	2.99570E+000	6.90671E-004	0.00000E+000	2.06904E-003	2.07950E+000	0.00000E+000	0.00000E+000	9	...........
	175	880	3.03422E+000	6.90671E-004	0.00000E+000	2.09565E-003	2.07950E+000	0.00000E+000	0.00000E+000	9	...........
	176	885	3.07257E+000	6.90670E-004	0.00000E+000	2.12213E-003	2.07950E+000	0.00000E+000	0.00000E+000	9	...........
	177	890	3.11031E+000	6.90671E-004	0.00000E+000	2.14820E-003	2.07950E+000	0.00000E+000	0.00000E+000	9	...........
	178	895	3.14722E+000	6.90669E-004	0.00000E+000	2.17369E-003	2.07950E+000	0.00000E+000	0.00000E+000	9	...........
	179	900	3.18310E+000	6.90671E-004	0.00000E+000	2.19848E-003	2.07950E+000	0.00000E+000	0.00000E+000	9	...........
	180	905	3.21812E+000	6.90669E-004	0.00000E+000	2.22265E-003	2.07950E+000	0.00000E+000	0.00000E+000	9	...........
	181	910	3.25208E+000	6.90671E-004	0.00000E+000	2.24612E-003	2.07950E+000	0.00000E+000	0.00000E+000	9	...........
	182	915	3.28489E+000	6.90671E-004	0.00000E+000	2.26878E-003	2.07950E+000	0.00000E+000	0.00000E+000	9	...........
	183	920	3.31652E+000	6.90671E-004	0.00000E+000	2.29062E-003	2.07950E+000	0.00000E+000	0.00000E+000	9	...........
	184	925	3.34707E+000	6.90671E-004	0.00000E+000	2.31172E-003	2.07950E+000	0.00000E+000	0.00000E+000	9	...........
	185	930	3.37656E+000	6.90671E-004	0.00000E+000	2.33209E-003	2.07950E+000	0.00000E+000	0.00000E+000	9	...........
	186	935	3.40501E+000	6.90670E-004	0.00000E+000	2.35174E-003	2.07950E+000	0.00000E+000	0.00000E+000	9	...........
	187	940	3.43235E+000	6.90670E-004	0.00000E+000	2.37062E-003	2.07950E+000	0.00000E+000	0.00000E+000	9	...........
	188	945	3.45868E+000	6.90670E-004	0.00000E+000	2.38880E-003	2.07950E+000	0.00000E+000	0.00000E+000	9	...........
	189	950	3.48394E+000	6.90668E-004	0.00000E+000	2.40625E-003	2.07950E+000	0.00000E+000	0.00000E+000	9	...........
	190	955	3.50811E+000	6.90670E-004	0.00000E+000	2.42294E-003	2.07950E+000	0.00000E+000	0.00000E+000	9	...........
	191	960	3.53112E+000	6.90670E-004	0.00000E+000	2.43884E-003	2.07950E+000	0.00000E+000	0.00000E+000	9	...........
	192	965	3.55303E+000	6.90669E-004	0.00000E+000	2.45397E-003	2.07950E+000	0.00000E+000	0.00000E+000	9	...........
	193	970	3.57368E+000	6.90669E-004	0.00000E+000	2.46823E-003	2.07950E+000	0.00000E+000	0.00000E+000	9	...........
	194	975	3.59319E+000	6.90667E-004	0.00000E+000	2.48170E-003	2.07950E+000	0.00000E+000	0.00000E+000	9	...........
	195	980	3.61140E+000	6.90669E-004	0.00000E+000	2.49428E-003	2.07950E+000	0.00000E+000	0.00000E+000	9	...........
	196	985	3.62821E+000	6.90670E-004	0.00000E+000	2.50589E-003	2.07950E+000	0.00000E+000	0.00000E+000	9	...........
	197	990	3.64365E+000	6.90668E-004	0.00000E+000	2.51655E-003	2.07950E+000	0.00000E+000	0.00000E+000	9	...........
	198	995	3.65759E+000	6.90669E-004	0.00000E+000	2.52619E-003	2.07950E+000	0.00000E+000	0.00000E+000	9	...........
	199	1000	3.67009E+000	6.90669E-004	0.00000E+000	2.53482E-003	2.07950E+000	0.00000E+000	0.00000E+000	9	...........
	200	1005	3.68120E+000	6.90670E-004	0.00000E+000	2.54250E-003	2.07950E+000	0.00000E+000	0.00000E+000	9	...........
	201	1010	3.69099E+000	6.90669E-004	0.00000E+000	2.54925E-003	2.07950E+000	0.00000E+000	0.00000E+000	9	...........
	202	1015	3.69958E+000	6.90667E-004	0.00000E+000	2.55518E-003	2.07950E+000	0.00000E+000	0.00000E+000	9	...........
	203	1020	3.70699E+000	6.90669E-004	0.00000E+000	2.56030E-003	2.07950E+000	0.00000E+000	0.00000E+000	9	...........
	204	1025	3.71342E+000	6.90669E-004	0.00000E+000	2.56474E-003	2.07950E+000	0.00000E+000	0.00000E+000	9	...........
	205	1030	3.71897E+000	6.90668E-004	0.00000E+000	2.56857E-003	2.07950E+000	0.00000E+000	0.00000E+000	9	...........
	206	1035	3.72374E+000	6.90669E-004	0.00000E+000	2.57187E-003	2.07950E+000	0.00000E+000	0.00000E+000	9	...........
	207	1040	3.72789E+000	6.90670E-004	0.00000E+000	2.57474E-003	2.07950E+000	0.00000E+000	0.00000E+000	9	...........
	208	1045	3.73149E+000	6.90670E-004	0.00000E+000	2.57723E-003	2.07950E+000	0.00000E+000	0.00000E+000	9	...........
	209	1050	3.73458E+000	6.90670E-004	0.00000E+000	2.57936E-003	2.07950E+000	0.00000E+000	0.00000E+000	9	...........
	210	1055	3.73727E+000	6.90669E-004	0.00000E+000	2.58122E-003	2.07950E+000	0.00000E+000	0.00000E+000	9	...........
	211	1060	3.73966E+000	6.90669E-004	0.00000E+000	2.58287E-003	2.07950E+000	0.00000E+000	0.00000E+000	9	...........
	212	1065	3.74178E+000	6.90669E-004	0.00000E+000	2.58433E-003	2.07950E+000	0.00000E+000	0.00000E+000	9	...........
	213	1070	3.74372E+000	6.90668E-004	0.00000E+000	2.58567E-003	2.07950E+000	0.00000E+000	0.00000E+000	9	...........
	214	1075	3.74540E+000	6.90670E-004	0.00000E+000	2.58684E-003	2.07950E+000	0.00000E+000	0.00000E+000	9	...........
	215	1080	3.74688E+000	6.90670E-004	0.00000E+000	2.58786E-003	2.07950E+000	0.00000E+000	0.00000E+000	9	...........
	216	1085	3.74822E+000	6.90669E-004	0.00000E+000	2.58878E-003	2.07950E+000	0.00000E+000	0.00000E+000	9	...........
	217	1090	3.74943E+000	6.90669E-004	0.00000E+000	2.58961E-003	2.07950E+000	0.00000E+000	0.00000E+000	9	...........
	218	1095	3.75056E+000	6.90668E-004	0.00000E+000	2.59039E-003	2.07950E+000	0.00000E+000	0.00000E+000	9	...........
	219	1100	3.75159E+000	6.90669E-004	0.00000E+000	2.59111E-003	2.07950E+000	0.00000E+000	0.00000E+000	9	...........
	220	1105	3.75255E+000	6.90668E-004	0.00000E+000	2.59177E-003	2.07950E+000	0.00000E+000	0.00000E+000	9	...........
	221	1110	3.75345E+000	6.90670E-004	0.00000E+000	2.59240E-003	2.07950E+000	0.00000E+000	0.00000E+000	9	...........
	222	1115	3.75428E+000	6.90669E-004	0.00000E+000	2.59296E-003	2.07950E+000	0.00000E+000	0.00000E+000	9	...........
	223	1120	3.75505E+000	6.90669E-004	0.00000E+000	2.59350E-003	2.07950E+000	0.00000E+000	0.00000E+000	9	...........
	224	1125	3.75578E+000	6.90669E-004	0.00000E+000	2.59400E-003	2.07950E+000	0.00000E+000	0.00000E+000	9	...........
	225	1130	3.75649E+000	6.90670E-004	0.00000E+000	2.59450E-003	2.07950E+000	0.00000E+000	0.00000E+000	9	...........
	226	1135	3.75715E+000	6.90670E-004	0.00000E+000	2.59495E-003	2.07950E+000	0.00000E+000	0.00000E+000	9	...........
	227	1140	3.75775E+000	6.90669E-004	0.00000E+000	2.59536E-003	2.07950E+000	0.00000E+000	0.00000E+000	9	...........
	228	1145	3.75834E+000	6.90670E-004	0.00000E+000	2.59577E-003	2.07950E+000	0.00000E+000	0.00000E+000	9	...........
	229	1150	3.75891E+000	6.90670E-004	0.00000E+000	2.59616E-003	2.07950E+000	0.00000E+000	0.00000E+000	9	...........
	230	1155	3.75942E+000	6.90668E-004	0.00000E+000	2.59651E-003	2.07950E+000	0.00000E+000	0.00000E+000	9	...........
	231	1160	3.75989E+000	6.90668E-004	0.00000E+000	2.59684E-003	2.07950E+000	0.00000E+000	0.00000E+000	9	...........
	232	1165	3.76047E+000	6.90669E-004	0.00000E+000	2.59724E-003	2.07950E+000	0.00000E+000	0.00000E+000	9	...........
	233	1170	3.76103E+000	6.90670E-004	0.00000E+000	2.59763E-003	2.07950E+000	0.00000E+000	0.00000E+000	9	...........
	234	1175	3.76150E+000	6.90669E-004	0.00000E+000	2.59795E-003	2.07950E+000	0.00000E+000	0.00000E+000	9	...........
	235	1180	3.76181E+000	6.90670E-004	0.00000E+000	2.59817E-003	2.07950E+000	0.00000E+000	0.00000E+000	9	...........
	236	1185	3.76223E+000	6.90669E-004	0.00000E+000	2.59845E-003	2.07950E+000	0.00000E+000	0.00000E+000	9	...........
	237	1190	3.76264E+000	6.90671E-004	0.00000E+000	2.59875E-003	2.07950E+000	0.00000E+000	0.00000E+000	9	...........
	238	1195	3.76307E+000	6.90671E-004	0.00000E+000	2.59904E-003	2.07950E+000	0.00000E+000	0.00000E+000	9	...........
	239	1200	3.76334E+000	6.90669E-004	0.00000E+000	2.59922E-003	2.07950E+000	0.00000E+000	0.00000E+000	9	...........
	240	1205	3.76370E+000	6.90669E-004	0.00000E+000	2.59947E-003	2.07950E+000	0.00000E+000	0.00000E+000	9	...........
	241	1210	3.76408E+000	6.90668E-004	0.00000E+000	2.59973E-003	2.07950E+000	0.00000E+000	0.00000E+000	9	...........
	242	1215	3.76444E+000	6.90670E-004	0.00000E+000	2.59999E-003	2.07950E+000	0.00000E+000	0.00000E+000	9	...........
	243	1220	3.76481E+000	6.90669E-004	0.00000E+000	2.60024E-003	2.07950E+000	0.00000E+000	0.00000E+000	9	...........
	244	1225	3.76516E+000	6.90669E-004	0.00000E+000	2.60048E-003	2.07950E+000	0.00000E+000	0.00000E+000	9	...........
	245	1230	3.76552E+000	6.90669E-004	0.00000E+000	2.60073E-003	2.07950E+000	0.00000E+000	0.00000E+000	9	...........
	246	1235	3.76598E+000	6.90669E-004	0.00000E+000	2.60105E-003	2.07950E+000	0.00000E+000	0.00000E+000	9	...........
	247	1240	3.76635E+000	6.90670E-004	0.00000E+000	2.60130E-003	2.07950E+000	0.00000E+000	0.00000E+000	9	...........
	248	1245	3.76668E+000	6.90670E-004	0.00000E+000	2.60153E-003	2.07950E+000	0.00000E+000	0.00000E+000	9	...........
	249	1250	3.76699E+000	6.90669E-004	0.00000E+000	2.60175E-003	2.07950E+000	0.00000E+000	0.00000E+000	9	...........
	250	1255	3.76731E+000	6.90672E-004	0.00000E+000	2.60198E-003	2.07950E+000	0.00000E+000	0.00000E+000	9	...........
	251	1260	3.76762E+000	6.90672E-004	0.00000E+000	2.60219E-003	2.07950E+000	0.00000E+000	0.00000E+000	9	...........
	252	1265	3.76777E+000	6.90671E-004	0.00000E+000	2.60229E-003	2.07950E+000	0.00000E+000	0.00000E+000	9	...........
	253	1270	3.76803E+000	6.90671E-004	0.00000E+000	2.60247E-003	2.07950E+000	0.00000E+000	0.00000E+000	9	...........
	254	1275	3.76833E+000	6.90670E-004	0.00000E+000	2.60267E-003	2.07950E+000	0.00000E+000	0.00000E+000	9	...........
	255	1280	3.76862E+000	6.90670E-004	0.00000E+000	2.60288E-003	2.07950E+000	0.00000E+000	0.00000E+000	9	...........
	256	1285	3.76890E+000	6.90670E-004	0.00000E+000	2.60307E-003	2.07950E+000	0.00000E+000	0.00000E+000	9	...........
	257	1290	3.76928E+000	6.90670E-004	0.00000E+000	2.60333E-003	2.07950E+000	0.00000E+000	0.00000E+000	9	...........
	258	1295	3.76962E+000	6.90670E-004	0.00000E+000	2.60357E-003	2.07950E+000	0.00000E+000	0.00000E+000	9	...........
	259	1300	3.76990E+000	6.90669E-004	0.00000E+000	2.60376E-003	2.07950E+000	0.00000E+000	0.00000E+000	9	...........
	260	1305	3.77017E+000	6.90671E-004	0.00000E+000	2.60395E-003	2.07950E+000	0.00000E+000	0.00000E+000	9	...........
	261	1310	3.77044E+000	6.90671E-004	0.00000E+000	2.60413E-003	2.07950E+000	0.00000E+000	0.00000E+000	9	...........
	262	1315	3.77066E+000	6.90669E-004	0.00000E+000	2.60428E-003	2.07950E+000	0.00000E+000	0.00000E+000	9	...........
	263	1320	3.77077E+000	6.90670E-004	0.00000E+000	2.60436E-003	2.07950E+000	0.00000E+000	0.00000E+000	9	...........
	264	1325	3.77102E+000	6.90671E-004	0.00000E+000	2.60453E-003	2.07950E+000	0.00000E+000	0.00000E+000	9	...........
	265	1330	3.77127E+000	6.90671E-004	0.00000E+000	2.60471E-003	2.07950E+000	0.00000E+000	0.00000E+000	9	...........
	266	1335	3.77153E+000	6.90671E-004	0.00000E+000	2.60489E-003	2.07950E+000	0.00000E+000	0.00000E+000	9	...........
	267	1340	3.77177E+000	6.90671E-004	0.00000E+000	2.60505E-003	2.07950E+000	0.00000E+000	0.00000E+000	9	...........
	268	1345	3.77202E+000	6.90672E-004	0.00000E+000	2.60523E-003	2.07950E+000	0.00000E+000	0.00000E+000	9	...........
	269	1350	3.77219E+000	6.90673E-004	0.00000E+000	2.60535E-003	2.07950E+000	0.00000E+000	0.00000E+000	9	...........
	270	1355	3.77241E+000	6.90672E-004	0.00000E+000	2.60550E-003	2.07950E+000	0.00000E+000	0.00000E+000	9	...........
	271	1360	3.77267E+000	6.90671E-004	0.00000E+000	2.60567E-003	2.07950E+000	0.00000E+000	0.00000E+000	9	...........
	272	1365	3.77291E+000	6.90671E-004	0.00000E+000	2.60584E-003	2.07950E+000	0.00000E+000	0.00000E+000	9	...........
	273	1370	3.77315E+000	6.90670E-004	0.00000E+000	2.60600E-003	2.07950E+000	0.00000E+000	0.00000E+000	9	...........
	274	1375	3.77338E+000	6.90671E-004	0.00000E+000	2.60616E-003	2.07950E+000	0.00000E+000	0.00000E+000	9	...........
	275	1380	3.77357E+000	6.90670E-004	0.00000E+000	2.60629E-003	2.07950E+000	0.00000E+000	0.00000E+000	9	...........
	276	1385	3.77363E+000	6.90670E-004	0.00000E+000	2.60634E-003	2.07950E+000	0.00000E+000	0.00000E+000	9	...........
	277	1390	3.77385E+000	6.90670E-004	0.00000E+000	2.60649E-003	2.07950E+000	0.00000E+000	0.00000E+000	9	...........
	278	1395	3.77408E+000	6.90670E-004	0.00000E+000	2.60664E-003	2.07950E+000	0.00000E+000	0.00000E+000	9	...........
	279	1400	3.77430E+000	6.90671E-004	0.00000E+000	2.60680E-003	2.07950E+000	0.00000E+000	0.00000E+000	9	...........
	280	1405	3.77453E+000	6.90670E-004	0.00000E+000	2.60696E-003	2.07950E+000	0.00000E+000	0.00000E+000	9	...........
	281	1410	3.77474E+000	6.90671E-004	0.00000E+000	2.60710E-003	2.07950E+000	0.00000E+000	0.00000E+000	9	...........
	282	1415	3.77511E+000	6.90671E-004	0.00000E+000	2.60736E-003	2.07950E+000	0.00000E+000	0.00000E+000	9	...........
	283	1420	3.77534E+000	6.90670E-004	0.00000E+000	2.60751E-003	2.07950E+000	0.00000E+000	0.00000E+000	9	...........
	284	1425	3.77555E+000	6.90669E-004	0.00000E+000	2.60766E-003	2.07950E+000	0.00000E+000	0.00000E+000	9	...........
	285	1430	3.77576E+000	6.90671E-004	0.00000E+000	2.60781E-003	2.07950E+000	0.00000E+000	0.00000E+000	9	...........
	286	1435	3.77597E+000	6.90671E-004	0.00000E+000	2.60795E-003	2.07950E+000	0.00000E+000	0.00000E+000	9	...........
	287	1440	3.77603E+000	6.90670E-004	0.00000E+000	2.60799E-003	2.07950E+000	0.00000E+000	0.00000E+000	9	...........
	288	1445	3.77621E+000	6.90670E-004	0.00000E+000	2.60811E-003	2.07950E+000	0.00000E+000	0.00000E+000	9	...........
	289	1450	3.77641E+000	6.90670E-004	0.00000E+000	2.60825E-003	2.07950E+000	0.00000E+000	0.00000E+000	9	...........
	290	1455	3.77661E+000	6.90670E-004	0.00000E+000	2.60839E-003	2.07950E+000	0.00000E+000	0.00000E+000	9	...........
	291	1460	3.77679E+000	6.90670E-004	0.00000E+000	2.60852E-003	2.07950E+000	0.00000E+000	0.00000E+000	9	...........
	292	1465	3.77712E+000	6.90670E-004	0.00000E+000	2.60875E-003	2.07950E+000	0.00000E+000	0.00000E+000	9	...........
	293	1470	3.77730E+000	6.90671E-004	0.00000E+000	2.60887E-003	2.07950E+000	0.00000E+000	0.00000E+000	9	...........
	294	1475	3.77749E+000	6.90672E-004	0.00000E+000	2.60901E-003	2.07950E+000	0.00000E+000	0.00000E+000	9	...........
	295	1480	3.77768E+000	6.90671E-004	0.00000E+000	2.60914E-003	2.07950E+000	0.00000E+000	0.00000E+000	9	...........
	296	1485	3.77780E+000	6.90670E-004	0.00000E+000	2.60921E-003	2.07950E+000	0.00000E+000	0.00000E+000	9	...........
	297	1490	3.77789E+000	6.90671E-004	0.00000E+000	2.60928E-003	2.07950E+000	0.00000E+000	0.00000E+000	9	...........
	298	1495	3.77809E+000	6.90672E-004	0.00000E+000	2.60942E-003	2.07950E+000	0.00000E+000	0.00000E+000	9	...........
	299	1500	3.77829E+000	6.90671E-004	0.00000E+000	2.60955E-003	2.07950E+000	0.00000E+000	0.00000E+000	9	...........
	300	1505	3.77850E+000	6.90671E-004	0.00000E+000	2.60970E-003	2.07950E+000	0.00000E+000	0.00000E+000	9	...........
	301	1510	3.77884E+000	6.90673E-004	0.00000E+000	2.60994E-003	2.07950E+000	0.00000E+000	0.00000E+000	9	...........
	302	1515	3.77903E+000	6.90672E-004	0.00000E+000	2.61007E-003	2.07950E+000	0.00000E+000	0.00000E+000	9	...........
	303	1520	3.77920E+000	6.90671E-004	0.00000E+000	2.61018E-003	2.07950E+000	0.00000E+000	0.00000E+000	9	...........
	304	1525	3.77904E+000	6.90671E-004	0.00000E+000	2.61007E-003	2.07950E+000	0.00000E+000	0.00000E+000	9	...........
	305	1530	3.77909E+000	6.90670E-004	0.00000E+000	2.61010E-003	2.07950E+000	0.00000E+000	0.00000E+000	9	...........
	306	1535	3.77923E+000	6.90670E-004	0.00000E+000	2.61020E-003	2.07950E+000	0.00000E+000	0.00000E+000	9	...........
	307	1540	3.77942E+000	6.90671E-004	0.00000E+000	2.61034E-003	2.07950E+000	0.00000E+000	0.00000E+000	9	...........
	308	1545	3.77960E+000	6.90671E-004	0.00000E+000	2.61046E-003	2.07950E+000	0.00000E+000	0.00000E+000	9	...........
	309	1550	3.77978E+000	6.90671E-004	0.00000E+000	2.61059E-003	2.07950E+000	0.00000E+000	0.00000E+000	9	...........
	310	1555	3.78010E+000	6.90671E-004	0.00000E+000	2.61081E-003	2.07950E+000	0.00000E+000	0.00000E+000	9	...........
	311	1560	3.78031E+000	6.90671E-004	0.00000E+000	2.61095E-003	2.07950E+000	0.00000E+000	0.00000E+000	9	...........
	312	1565	3.78048E+000	6.90672E-004	0.00000E+000	2.61107E-003	2.07950E+000	0.00000E+000	0.00000E+000	9	...........
	313	1570	3.78067E+000	6.90672E-004	0.00000E+000	2.61120E-003	2.07950E+000	0.00000E+000	0.00000E+000	9	...........
	314	1575	3.78082E+000	6.90671E-004	0.00000E+000	2.61130E-003	2.07950E+000	0.00000E+000	0.00000E+000	9	...........
	315	1580	3.78084E+000	6.90672E-004	0.00000E+000	2.61132E-003	2.07950E+000	0.00000E+000	0.00000E+000	9	...........
	316	1585	3.78102E+000	6.90672E-004	0.00000E+000	2.61144E-003	2.07950E+000	0.00000E+000	0.00000E+000	9	...........
	317	1590	3.78119E+000	6.90671E-004	0.00000E+000	2.61156E-003	2.07950E+000	0.00000E+000	0.00000E+000	9	...........
	318	1595	3.78137E+000	6.90671E-004	0.00000E+000	2.61168E-003	2.07950E+000	0.00000E+000	0.00000E+000	9	...........
	319	1600	3.78162E+000	6.90671E-004	0.00000E+000	2.61185E-003	2.07950E+000	0.00000E+000	0.00000E+000	9	...........
	320	1605	3.78190E+000	6.90671E-004	0.00000E+000	2.61205E-003	2.07950E+000	0.00000E+000	0.00000E+000	9	...........
	321	1610	3.78207E+000	6.90671E-004	0.00000E+000	2.61216E-003	2.07950E+000	0.00000E+000	0.00000E+000	9	...........
	322	1615	3.78223E+000	6.90672E-004	0.00000E+000	2.61228E-003	2.07950E+000	0.00000E+000	0.00000E+000	9	...........
	323	1620	3.78240E+000	6.90671E-004	0.00000E+000	2.61239E-003	2.07950E+000	0.00000E+000	0.00000E+000	9	...........
	324	1625	3.78242E+000	6.90672E-004	0.00000E+000	2.61241E-003	2.07950E+000	0.00000E+000	0.00000E+000	9	...........
	325	1630	3.78256E+000	6.90671E-004	0.00000E+000	2.61250E-003	2.07950E+000	0.00000E+000	0.00000E+000	9	...........
	326	1635	3.78272E+000	6.90671E-004	0.00000E+000	2.61262E-003	2.07950E+000	0.00000E+000	0.00000E+000	9	...........
	327	1640	3.78290E+000	6.90671E-004	0.00000E+000	2.61274E-003	2.07950E+000	0.00000E+000	0.00000E+000	9	...........
	328	1645	3.78319E+000	6.90672E-004	0.00000E+000	2.61294E-003	2.07950E+000	0.00000E+000	0.00000E+000	9	...........
	329	1650	3.78344E+000	6.90673E-004	0.00000E+000	2.61312E-003	2.07950E+000	0.00000E+000	0.00000E+000	9	...........
	330	1655	3.78317E+000	6.90673E-004	0.00000E+000	2.61293E-003	2.07950E+000	0.00000E+000	0.00000E+000	9	...........
	331	1660	3.78333E+000	6.90673E-004	0.00000E+000	2.61304E-003	2.07950E+000	0.00000E+000	0.00000E+000	9	...........
	332	1665	3.78350E+000	6.90672E-004	0.00000E+000	2.61316E-003	2.07950E+000	0.00000E+000	0.00000E+000	9	...........
	333	1670	3.78355E+000	6.90671E-004	0.00000E+000	2.61318E-003	2.07950E+000	0.00000E+000	0.00000E+000	9	...........
	334	1675	3.78382E+000	6.90671E-004	0.00000E+000	2.61338E-003	2.07950E+000	0.00000E+000	0.00000E+000	9	...........
	335	1680	3.78400E+000	6.90671E-004	0.00000E+000	2.61350E-003	2.07950E+000	0.00000E+000	0.00000E+000	9	...........
	336	1685	3.78420E+000	6.90671E-004	0.00000E+000	2.61364E-003	2.07950E+000	0.00000E+000	0.00000E+000	9	...........
	337	1690	3.78450E+000	6.90671E-004	0.00000E+000	2.61384E-003	2.07950E+000	0.00000E+000	0.00000E+000	9	...........
	338	1695	3.78470E+000	6.90671E-004	0.00000E+000	2.61398E-003	2.07950E+000	0.00000E+000	0.00000E+000	9	...........
	339	1700	3.78488E+000	6.90671E-004	0.00000E+000	2.61411E-003	2.07950E+000	0.00000E+000	0.00000E+000	9	...........
	340	1705	3.78504E+000	6.90670E-004	0.00000E+000	2.61422E-003	2.07950E+000	0.00000E+000	0.00000E+000	9	...........
	341	1710	3.78515E+000	6.90670E-004	0.00000E+000	2.61429E-003	2.07950E+000	0.00000E+000	0.00000E+000	9	...........
	342	1715	3.78520E+000	6.90670E-004	0.00000E+000	2.61433E-003	2.07950E+000	0.00000E+000	0.00000E+000	9	...........
	343	1720	3.78536E+000	6.90671E-004	0.00000E+000	2.61444E-003	2.07950E+000	0.00000E+000	0.00000E+000	9	...........
	344	1725	3.78553E+000	6.90671E-004	0.00000E+000	2.61455E-003	2.07950E+000	0.00000E+000	0.00000E+000	9	...........
	345	1730	3.78572E+000	6.90671E-004	0.00000E+000	2.61469E-003	2.07950E+000	0.00000E+000	0.00000E+000	9	...........
	346	1735	3.78602E+000	6.90670E-004	0.00000E+000	2.61489E-003	2.07950E+000	0.00000E+000	0.00000E+000	9	...........
	347	1740	3.78621E+000	6.90669E-004	0.00000E+000	2.61501E-003	2.07950E+000	0.00000E+000	0.00000E+000	9	...........
	348	1745	3.78636E+000	6.90669E-004	0.00000E+000	2.61512E-003	2.07950E+000	0.00000E+000	0.00000E+000	9	...........
	349	1750	3.78653E+000	6.90670E-004	0.00000E+000	2.61524E-003	2.07950E+000	0.00000E+000	0.00000E+000	9	...........
	350	1755	3.78654E+000	6.90671E-004	0.00000E+000	2.61525E-003	2.07950E+000	0.00000E+000	0.00000E+000	9	...........
	351	1760	3.78665E+000	6.90672E-004	0.00000E+000	2.61533E-003	2.07950E+000	0.00000E+000	0.00000E+000	9	...........
	352	1765	3.78680E+000	6.90671E-004	0.00000E+000	2.61543E-003	2.07950E+000	0.00000E+000	0.00000E+000	9	...........
	353	1770	3.78697E+000	6.90670E-004	0.00000E+000	2.61554E-003	2.07950E+000	0.00000E+000	0.00000E+000	9	...........
	354	1775	3.78720E+000	6.90670E-004	0.00000E+000	2.61571E-003	2.07950E+000	0.00000E+000	0.00000E+000	9	...........
	355	1780	3.78746E+000	6.90670E-004	0.00000E+000	2.61588E-003	2.07950E+000	0.00000E+000	0.00000E+000	9	...........
	356	1785	3.78762E+000	6.90671E-004	0.00000E+000	2.61600E-003	2.07950E+000	0.00000E+000	0.00000E+000	9	...........
	357	1790	3.78779E+000	6.90672E-004	0.00000E+000	2.61612E-003	2.07950E+000	0.00000E+000	0.00000E+000	9	...........
	358	1795	3.78796E+000	6.90671E-004	0.00000E+000	2.61623E-003	2.07950E+000	0.00000E+000	0.00000E+000	9	...........
	359	1800	3.78794E+000	6.90672E-004	0.00000E+000	2.61622E-003	2.07950E+000	0.00000E+000	0.00000E+000	9	...........
	360	1805	3.78812E+000	6.90672E-004	0.00000E+000	2.61635E-003	2.07950E+000	0.00000E+000	0.00000E+000	9	...........
	361	1810	3.78829E+000	6.90671E-004	0.00000E+000	2.61646E-003	2.07950E+000	0.00000E+000	0.00000E+000	9	...........
	362	1815	3.78845E+000	6.90670E-004	0.00000E+000	2.61657E-003	2.07950E+000	0.00000E+000	0.00000E+000	9	...........
	363	1820	3.78880E+000	6.90672E-004	0.00000E+000	2.61682E-003	2.07950E+000	0.00000E+000	0.00000E+000	9	...........
	364	1825	3.78898E+000	6.90672E-004	0.00000E+000	2.61694E-003	2.07950E+000	0.00000E+000	0.00000E+000	9	...........
	365	1830	3.78914E+000	6.90669E-004	0.00000E+000	2.61705E-003	2.07950E+000	0.00000E+000	0.00000E+000	9	...........
	366	1835	3.78932E+000	6.90669E-004	0.00000E+000	2.61716E-003	2.07950E+000	0.00000E+000	0.00000E+000	9	...........
	367	1840	3.78946E+000	6.90669E-004	0.00000E+000	2.61726E-003	2.07950E+000	0.00000E+000	0.00000E+000	9	...........
	368	1845	3.78950E+000	6.90669E-004	0.00000E+000	2.61729E-003	2.07950E+000	0.00000E+000	0.00000E+000	9	...........
	369	1850	3.78966E+000	6.90670E-004	0.00000E+000	2.61740E-003	2.07950E+000	0.00000E+000	0.00000E+000	9	...........
	370	1855	3.78984E+000	6.90672E-004	0.00000E+000	2.61753E-003	2.07950E+000	0.00000E+000	0.00000E+000	9	...........
	371	1860	3.79013E+000	6.90671E-004	0.00000E+000	2.61773E-003	2.07950E+000	0.00000E+000	0.00000E+000	9	...........
	372	1865	3.79030E+000	6.90673E-004	0.00000E+000	2.61786E-003	2.07950E+000	0.00000E+000	0.00000E+000	9	...........
	373	1870	3.79044E+000	6.90672E-004	0.00000E+000	2.61795E-003	2.07950E+000	0.00000E+000	0.00000E+000	9	...........
	374	1875	3.79061E+000	6.90670E-004	0.00000E+000	2.61806E-003	2.07950E+000	0.00000E+000	0.00000E+000	9	...........
	375	1880	3.79063E+000	6.90671E-004	0.00000E+000	2.61808E-003	2.07950E+000	0.00000E+000	0.00000E+000	9	...........
	376	1885	3.79071E+000	6.90672E-004	0.00000E+000	2.61814E-003	2.07950E+000	0.00000E+000	0.00000E+000	9	...........
	377	1890	3.79093E+000	6.90672E-004	0.00000E+000	2.61829E-003	2.07950E+000	0.00000E+000	0.00000E+000	9	...........
	378	1895	3.79121E+000	6.90670E-004	0.00000E+000	2.61848E-003	2.07950E+000	0.00000E+000	0.00000E+000	9	...........
	379	1900	3.79138E+000	6.90671E-004	0.00000E+000	2.61859E-003	2.07950E+000	0.00000E+000	0.00000E+000	9	...........
	380	1905	3.79151E+000	6.90671E-004	0.00000E+000	2.61868E-003	2.07950E+000	0.00000E+000	0.00000E+000	9	...........
	381	1910	3.79164E+000	6.90669E-004	0.00000E+000	2.61877E-003	2.07950E+000	0.00000E+000	0.00000E+000	9	...........
	382	1915	3.79166E+000	6.90673E-004	0.00000E+000	2.61880E-003	2.07950E+000	0.00000E+000	0.00000E+000	9	...........
	383	1920	3.79178E+000	6.90671E-004	0.00000E+000	2.61887E-003	2.07950E+000	0.00000E+000	0.00000E+000	9	...........
	384	1925	3.79193E+000	6.90672E-004	0.00000E+000	2.61898E-003	2.07950E+000	0.00000E+000	0.00000E+000	9	...........
	385	1930	3.79208E+000	6.90671E-004	0.00000E+000	2.61908E-003	2.07950E+000	0.00000E+000	0.00000E+000	9	...........
	386	1935	3.79236E+000	6.90670E-004	0.00000E+000	2.61927E-003	2.07950E+000	0.00000E+000	0.00000E+000	9	...........
	387	1940	3.79257E+000	6.90670E-004	0.00000E+000	2.61941E-003	2.07950E+000	0.00000E+000	0.00000E+000	9	...........
	388	1945	3.79273E+000	6.90671E-004	0.00000E+000	2.61953E-003	2.07950E+000	0.00000E+000	0.00000E+000	9	...........
	389	1950	3.79288E+000	6.90670E-004	0.00000E+000	2.61963E-003	2.07950E+000	0.00000E+000	0.00000E+000	9	...........
	390	1955	3.79304E+000	6.90670E-004	0.00000E+000	2.61974E-003	2.07950E+000	0.00000E+000	0.00000E+000	9	...........
	391	1960	3.79300E+000	6.90670E-004	0.00000E+000	2.61971E-003	2.07950E+000	0.00000E+000	0.00000E+000	9	...........
	392	1965	3.79315E+000	6.90671E-004	0.00000E+000	2.61982E-003	2.07950E+000	0.00000E+000	0.00000E+000	9	...........
	393	1970	3.79331E+000	6.90670E-004	0.00000E+000	2.61992E-003	2.07950E+000	0.00000E+000	0.00000E+000	9	...........
	394	1975	3.79352E+000	6.90670E-004	0.00000E+000	2.62007E-003	2.07950E+000	0.00000E+000	0.00000E+000	9	...........
	395	1980	3.79381E+000	6.90669E-004	0.00000E+000	2.62027E-003	2.07950E+000	0.00000E+000	0.00000E+000	9	...........
	396	1985	3.79398E+000	6.90669E-004	0.00000E+000	2.62038E-003	2.07950E+000	0.00000E+000	0.00000E+000	9	...........
	397	1990	3.79390E+000	6.90671E-004	0.00000E+000	2.62033E-003	2.07950E+000	0.00000E+000	0.00000E+000	9	...........
	398	1995	3.79403E+000	6.90669E-004	0.00000E+000	2.62042E-003	2.07950E+000	0.00000E+000	0.00000E+000	9	...........
	399	2000	3.79420E+000	6.90668E-004	0.00000E+000	2.62053E-003	2.07950E+000	0.00000E+000	0.00000E+000	9	...........
	400	2005	3.79438E+000	6.90670E-004	0.00000E+000	2.62067E-003	2.07950E+000	0.00000E+000	0.00000E+000	9	...........
	401	2010	3.79462E+000	6.90669E-004	0.00000E+000	2.62083E-003	2.07950E+000	0.00000E+000	0.00000E+000	9	...........
	402	2015	3.79476E+000	6.90669E-004	0.00000E+000	2.62092E-003	2.07950E+000	0.00000E+000	0.00000E+000	9	...........
	403	2020	3.79492E+000	6.90669E-004	0.00000E+000	2.62103E-003	2.07950E+000	0.00000E+000	0.00000E+000	9	...........
	404	2025	3.79505E+000	6.90671E-004	0.00000E+000	2.62113E-003	2.07950E+000	0.00000E+000	0.00000E+000	9	...........
	405	2030	3.79518E+000	6.90671E-004	0.00000E+000	2.62122E-003	2.07950E+000	0.00000E+000	0.00000E+000	9	...........
	406	2035	3.79532E+000	6.90671E-004	0.00000E+000	2.62132E-003	2.07950E+000	0.00000E+000	0.00000E+000	9	...........
	407	2040	3.79546E+000	6.90671E-004	0.00000E+000	2.62142E-003	2.07950E+000	0.00000E+000	0.00000E+000	9	...........
	408	2045	3.79560E+000	6.90671E-004	0.00000E+000	2.62151E-003	2.07950E+000	0.00000E+000	0.00000E+000	9	...........
	409	2050	3.79576E+000	6.90669E-004	0.00000E+000	2.62161E-003	2.07950E+000	0.00000E+000	0.00000E+000	9	...........
	410	2055	3.79590E+000	6.90670E-004	0.00000E+000	2.62171E-003	2.07950E+000	0.00000E+000	0.00000E+000	9	...........
	411	2060	3.79605E+000	6.90670E-004	0.00000E+000	2.62182E-003	2.07950E+000	0.00000E+000	0.00000E+000	9	...........
	412	2065	3.79619E+000	6.90669E-004	0.00000E+000	2.62192E-003	2.07950E+000	0.00000E+000	0.00000E+000	9	...........
	413	2070	3.79635E+000	6.90670E-004	0.00000E+000	2.62202E-003	2.07950E+000	0.00000E+000	0.00000E+000	9	...........
	414	2075	3.79650E+000	6.90669E-004	0.00000E+000	2.62212E-003	2.07950E+000	0.00000E+000	0.00000E+000	9	...........
	415	2080	3.79664E+000	6.90670E-004	0.00000E+000	2.62223E-003	2.07950E+000	0.00000E+000	0.00000E+000	9	...........
	416	2085	3.79678E+000	6.90671E-004	0.00000E+000	2.62232E-003	2.07950E+000	0.00000E+000	0.00000E+000	9	...........
	417	2090	3.79694E+000	6.90670E-004	0.00000E+000	2.62243E-003	2.07950E+000	0.00000E+000	0.00000E+000	9	...........
	418	2095	3.79708E+000	6.90668E-004	0.00000E+000	2.62252E-003	2.07950E+000	0.00000E+000	0.00000E+000	9	...........
	419	2100	3.79721E+000	6.90668E-004	0.00000E+000	2.62261E-003	2.07950E+000	0.00000E+000	0.00000E+000	9	...........
	420	2105	3.79737E+000	6.90668E-004	0.00000E+000	2.62272E-003	2.07950E+000	0.00000E+000	0.00000E+000	9	...........
	421	2110	3.79751E+000	6.90670E-004	0.00000E+000	2.62282E-003	2.07950E+000	0.00000E+000	0.00000E+000	9	...........
	422	2115	3.79766E+000	6.90670E-004	0.00000E+000	2.62293E-003	2.07950E+000	0.00000E+000	0.00000E+000	9	...........
	423	2120	3.79781E+000	6.90669E-004	0.00000E+000	2.62303E-003	2.07950E+000	0.00000E+000	0.00000E+000	9	...........
	424	2125	3.79795E+000	6.90670E-004	0.00000E+000	2.62313E-003	2.07950E+000	0.00000E+000	0.00000E+000	9	...........
	425	2130	3.79809E+000	6.90671E-004	0.00000E+000	2.62323E-003	2.07950E+000	0.00000E+000	0.00000E+000	9	...........
	426	2135	3.79824E+000	6.90671E-004	0.00000E+000	2.62333E-003	2.07950E+000	0.00000E+000	0.00000E+000	9	...........
	427	2140	3.79838E+000	6.90671E-004	0.00000E+000	2.62343E-003	2.07950E+000	0.00000E+000	0.00000E+000	9	...........
	428	2145	3.79853E+000	6.90670E-004	0.00000E+000	2.62353E-003	2.07950E+000	0.00000E+000	0.00000E+000	9	...........
	429	2150	3.79821E+000	6.90670E-004	0.00000E+000	2.62331E-003	2.07950E+000	0.00000E+000	0.00000E+000	9	...........
	430	2155	3.79817E+000	6.90670E-004	0.00000E+000	2.62328E-003	2.07950E+000	0.00000E+000	0.00000E+000	9	...........
	431	2160	3.79830E+000	6.90672E-004	0.00000E+000	2.62338E-003	2.07950E+000	0.00000E+000	0.00000E+000	9	...........
	432	2165	3.79844E+000	6.90672E-004	0.00000E+000	2.62347E-003	2.07950E+000	0.00000E+000	0.00000E+000	9	...........
	433	2170	3.79858E+000	6.90670E-004	0.00000E+000	2.62357E-003	2.07950E+000	0.00000E+000	0.00000E+000	9	...........
	434	2175	3.79871E+000	6.90670E-004	0.00000E+000	2.62366E-003	2.07950E+000	0.00000E+000	0.00000E+000	9	...........
	435	2180	3.79885E+000	6.90670E-004	0.00000E+000	2.62375E-003	2.07950E+000	0.00000E+000	0.00000E+000	9	...........
	436	2185	3.79900E+000	6.90671E-004	0.00000E+000	2.62386E-003	2.07950E+000	0.00000E+000	0.00000E+000	9	...........
	437	2190	3.79912E+000	6.90671E-004	0.00000E+000	2.62395E-003	2.07950E+000	0.00000E+000	0.00000E+000	9	...........
	438	2195	3.79927E+000	6.90669E-004	0.00000E+000	2.62404E-003	2.07950E+000	0.00000E+000	0.00000E+000	9	...........
	439	2200	3.79941E+000	6.90670E-004	0.00000E+000	2.62414E-003	2.07950E+000	0.00000E+000	0.00000E+000	9	...........
	440	2205	3.79954E+000	6.90669E-004	0.00000E+000	2.62423E-003	2.07950E+000	0.00000E+000	0.00000E+000	9	...........
	441	2210	3.79970E+000	6.90669E-004	0.00000E+000	2.62434E-003	2.07950E+000	0.00000E+000	0.00000E+000	9	...........
	442	2215	3.79985E+000	6.90670E-004	0.00000E+000	2.62444E-003	2.07950E+000	0.00000E+000	0.00000E+000	9	...........
	443	2220	3.79999E+000	6.90671E-004	0.00000E+000	2.62454E-003	2.07950E+000	0.00000E+000	0.00000E+000	9	...........
	444	2225	3.80014E+000	6.90671E-004	0.00000E+000	2.62465E-003	2.07950E+000	0.00000E+000	0.00000E+000	9	...........
	445	2230	3.80027E+000	6.90670E-004	0.00000E+000	2.62473E-003	2.07950E+000	0.00000E+000	0.00000E+000	9	...........
	446	2235	3.80040E+000	6.90671E-004	0.00000E+000	2.62483E-003	2.07950E+000	0.00000E+000	0.00000E+000	9	...........
	447	2240	3.80055E+000	6.90670E-004	0.00000E+000	2.62493E-003	2.07950E+000	0.00000E+000	0.00000E+000	9	...........
	448	2245	3.80069E+000	6.90670E-004	0.00000E+000	2.62503E-003	2.07950E+000	0.00000E+000	0.00000E+000	9	...........
	449	2250	3.80090E+000	6.90669E-004	0.00000E+000	2.62517E-003	2.07950E+000	0.00000E+000	0.00000E+000	9	...........
	450	2255	3.80112E+000	6.90670E-004	0.00000E+000	2.62532E-003	2.07950E+000	0.00000E+000	0.00000E+000	9	...........
	451	2260	3.80127E+000	6.90671E-004	0.00000E+000	2.62543E-003	2.07950E+000	0.00000E+000	0.00000E+000	9	...........
	452	2265	3.80142E+000	6.90670E-004	0.00000E+000	2.62553E-003	2.07950E+000	0.00000E+000	0.00000E+000	9	...........
	453	2270	3.80157E+000	6.90669E-004	0.00000E+000	2.62563E-003	2.07950E+000	0.00000E+000	0.00000E+000	9	...........
	454	2275	3.80172E+000	6.90670E-004	0.00000E+000	2.62573E-003	2.07950E+000	0.00000E+000	0.00000E+000	9	...........
	455	2280	3.80187E+000	6.90671E-004	0.00000E+000	2.62584E-003	2.07950E+000	0.00000E+000	0.00000E+000	9	...........
	456	2285	3.80200E+000	6.90670E-004	0.00000E+000	2.62593E-003	2.07950E+000	0.00000E+000	0.00000E+000	9	...........
	457	2290	3.80215E+000	6.90670E-004	0.00000E+000	2.62603E-003	2.07950E+000	0.00000E+000	0.00000E+000	9	...........
	458	2295	3.80228E+000	6.90670E-004	0.00000E+000	2.62612E-003	2.07950E+000	0.00000E+000	0.00000E+000	9	...........
	459	2300	3.80240E+000	6.90671E-004	0.00000E+000	2.62621E-003	2.07950E+000	0.00000E+000	0.00000E+000	9	...........
	460	2305	3.80254E+000	6.90669E-004	0.00000E+000	2.62630E-003	2.07950E+000	0.00000E+000	0.00000E+000	9	...........
	461	2310	3.80268E+000	6.90669E-004	0.00000E+000	2.62639E-003	2.07950E+000	0.00000E+000	0.00000E+000	9	...........
	462	2315	3.80282E+000	6.90669E-004	0.00000E+000	2.62649E-003	2.07950E+000	0.00000E+000	0.00000E+000	9	...........
	463	2320	3.80297E+000	6.90669E-004	0.00000E+000	2.62659E-003	2.07950E+000	0.00000E+000	0.00000E+000	9	...........
	464	2325	3.80310E+000	6.90669E-004	0.00000E+000	2.62669E-003	2.07950E+000	0.00000E+000	0.00000E+000	9	...........
	465	2330	3.80324E+000	6.90671E-004	0.00000E+000	2.62679E-003	2.07950E+000	0.00000E+000	0.00000E+000	9	...........
	466	2335	3.80340E+000	6.90670E-004	0.00000E+000	2.62689E-003	2.07950E+000	0.00000E+000	0.00000E+000	9	...........
	467	2340	3.80355E+000	6.90671E-004	0.00000E+000	2.62700E-003	2.07950E+000	0.00000E+000	0.00000E+000	9	...........
	468	2345	3.80369E+000	6.90671E-004	0.00000E+000	2.62710E-003	2.07950E+000	0.00000E+000	0.00000E+000	9	...........
	469	2350	3.80384E+000	6.90672E-004	0.00000E+000	2.62721E-003	2.07950E+000	0.00000E+000	0.00000E+000	9	...........
	470	2355	3.80399E+000	6.90670E-004	0.00000E+000	2.62731E-003	2.07950E+000	0.00000E+000	0.00000E+000	9	...........
	471	2360	3.80414E+000	6.90670E-004	0.00000E+000	2.62740E-003	2.07950E+000	0.00000E+000	0.00000E+000	9	...........
	472	2365	3.80427E+000	6.90670E-004	0.00000E+000	2.62749E-003	2.07950E+000	0.00000E+000	0.00000E+000	9	...........
	473	2370	3.80440E+000	6.90669E-004	0.00000E+000	2.62758E-003	2.07950E+000	0.00000E+000	0.00000E+000	9	...........
	474	2375	3.80454E+000	6.90669E-004	0.00000E+000	2.62768E-003	2.07950E+000	0.00000E+000	0.00000E+000	9	...........
	475	2380	3.80469E+000	6.90668E-004	0.00000E+000	2.62778E-003	2.07950E+000	0.00000E+000	0.00000E+000	9	...........
	476	2385	3.80483E+000	6.90670E-004	0.00000E+000	2.62788E-003	2.07950E+000	0.00000E+000	0.00000E+000	9	...........
	477	2390	3.80497E+000	6.90669E-004	0.00000E+000	2.62797E-003	2.07950E+000	0.00000E+000	0.00000E+000	9	...........
	478	2395	3.80512E+000	6.90670E-004	0.00000E+000	2.62808E-003	2.07950E+000	0.00000E+000	0.00000E+000	9	...........
	479	2400	3.80525E+000	6.90669E-004	0.00000E+000	2.62817E-003	2.07950E+000	0.00000E+000	0.00000E+000	9	...........
	480	2405	3.80537E+000	6.90670E-004	0.00000E+000	2.62826E-003	2.07950E+000	0.00000E+000	0.00000E+000	9	...........
	481	2410	3.80549E+000	6.90670E-004	0.00000E+000	2.62834E-003	2.07950E+000	0.00000E+000	0.00000E+000	9	...........
	482	2415	3.80562E+000	6.90669E-004	0.00000E+000	2.62842E-003	2.07950E+000	0.00000E+000	0.00000E+000	9	...........
	483	2420	3.80577E+000	6.90670E-004	0.00000E+000	2.62853E-003	2.07950E+000	0.00000E+000	0.00000E+000	9	...........
	484	2425	3.80591E+000	6.90671E-004	0.00000E+000	2.62863E-003	2.07950E+000	0.00000E+000	0.00000E+000	9	...........
	485	2430	3.80605E+000	6.90671E-004	0.00000E+000	2.62873E-003	2.07950E+000	0.00000E+000	0.00000E+000	9	...........
	486	2435	3.80620E+000	6.90671E-004	0.00000E+000	2.62883E-003	2.07950E+000	0.00000E+000	0.00000E+000	9	...........
	487	2440	3.80633E+000	6.90672E-004	0.00000E+000	2.62893E-003	2.07950E+000	0.00000E+000	0.00000E+000	9	...........
	488	2445	3.80648E+000	6.90672E-004	0.00000E+000	2.62903E-003	2.07950E+000	0.00000E+000	0.00000E+000	9	...........
	489	2450	3.80661E+000	6.90671E-004	0.00000E+000	2.62912E-003	2.07950E+000	0.00000E+000	0.00000E+000	9	...........
	490	2455	3.80675E+000	6.90671E-004	0.00000E+000	2.62921E-003	2.07950E+000	0.00000E+000	0.00000E+000	9	...........
	491	2460	3.80691E+000	6.90670E-004	0.00000E+000	2.62931E-003	2.07950E+000	0.00000E+000	0.00000E+000	9	...........
	492	2465	3.80707E+000	6.90669E-004	0.00000E+000	2.62942E-003	2.07950E+000	0.00000E+000	0.00000E+000	9	...........
	493	2470	3.80720E+000	6.90670E-004	0.00000E+000	2.62952E-003	2.07950E+000	0.00000E+000	0.00000E+000	9	...........
	494	2475	3.80734E+000	6.90670E-004	0.00000E+000	2.62962E-003	2.07950E+000	0.00000E+000	0.00000E+000	9	...........
	495	2480	3.80748E+000	6.90670E-004	0.00000E+000	2.62971E-003	2.07950E+000	0.00000E+000	0.00000E+000	9	...........
	496	2485	3.80762E+000	6.90669E-004	0.00000E+000	2.62981E-003	2.07950E+000	0.00000E+000	0.00000E+000	9	...........
	497	2490	3.80778E+000	6.90671E-004	0.00000E+000	2.62992E-003	2.07950E+000	0.00000E+000	0.00000E+000	9	...........
	498	2495	3.80792E+000	6.90670E-004	0.00000E+000	2.63002E-003	2.07950E+000	0.00000E+000	0.00000E+000	9	...........
	499	2500	3.80807E+000	6.90670E-004	0.00000E+000	2.63012E-003	2.07950E+000	0.00000E+000	0.00000E+000	9	...........
	500	2505	3.80822E+000	6.90670E-004	0.00000E+000	2.63022E-003	2.07950E+000	0.00000E+000	0.00000E+000	9	...........
	501	2510	3.80836E+000	6.90669E-004	0.00000E+000	2.63032E-003	2.07950E+000	0.00000E+000	0.00000E+000	9	...........
	502	2515	3.80849E+000	6.90669E-004	0.00000E+000	2.63041E-003	2.07950E+000	0.00000E+000	0.00000E+000	9	...........
	503	2520	3.80863E+000	6.90670E-004	0.00000E+000	2.63051E-003	2.07950E+000	0.00000E+000	0.00000E+000	9	...........
	504	2525	3.80876E+000	6.90670E-004	0.00000E+000	2.63059E-003	2.07950E+000	0.00000E+000	0.00000E+000	9	...........
	505	2530	3.80890E+000	6.90671E-004	0.00000E+000	2.63070E-003	2.07950E+000	0.00000E+000	0.00000E+000	9	...........
	506	2535	3.80904E+000	6.90671E-004	0.00000E+000	2.63079E-003	2.07950E+000	0.00000E+000	0.00000E+000	9	...........
	507	2540	3.80917E+000	6.90671E-004	0.00000E+000	2.63088E-003	2.07950E+000	0.00000E+000	0.00000E+000	9	...........
	508	2545	3.80931E+000	6.90671E-004	0.00000E+000	2.63098E-003	2.07950E+000	0.00000E+000	0.00000E+000	9	...........
	509	2550	3.80946E+000	6.90671E-004	0.00000E+000	2.63109E-003	2.07950E+000	0.00000E+000	0.00000E+000	9	...........
	510	2555	3.80961E+000	6.90671E-004	0.00000E+000	2.63119E-003	2.07950E+000	0.00000E+000	0.00000E+000	9	...........
	511	2560	3.80976E+000	6.90670E-004	0.00000E+000	2.63128E-003	2.07950E+000	0.00000E+000	0.00000E+000	9	...........
	512	2565	3.80991E+000	6.90669E-004	0.00000E+000	2.63139E-003	2.07950E+000	0.00000E+000	0.00000E+000	9	...........
	513	2570	3.81005E+000	6.90669E-004	0.00000E+000	2.63148E-003	2.07950E+000	0.00000E+000	0.00000E+000	9	...........
	514	2575	3.81020E+000	6.90669E-004	0.00000E+000	2.63159E-003	2.07950E+000	0.00000E+000	0.00000E+000	9	...........
	515	2580	3.81035E+000	6.90669E-004	0.00000E+000	2.63169E-003	2.07950E+000	0.00000E+000	0.00000E+000	9	...........
	516	2585	3.81048E+000	6.90671E-004	0.00000E+000	2.63179E-003	2.07950E+000	0.00000E+000	0.00000E+000	9	...........
	517	2590	3.81063E+000	6.90671E-004	0.00000E+000	2.63189E-003	2.07950E+000	0.00000E+000	0.00000E+000	9	...........
	518	2595	3.81076E+000	6.90671E-004	0.00000E+000	2.63198E-003	2.07950E+000	0.00000E+000	0.00000E+000	9	...........
	519	2600	3.81090E+000	6.90671E-004	0.00000E+000	2.63208E-003	2.07950E+000	0.00000E+000	0.00000E+000	9	...........
	520	2605	3.81105E+000	6.90671E-004	0.00000E+000	2.63218E-003	2.07950E+000	0.00000E+000	0.00000E+000	9	...........
	521	2610	3.81120E+000	6.90671E-004	0.00000E+000	2.63228E-003	2.07950E+000	0.00000E+000	0.00000E+000	9	...........
	522	2615	3.81135E+000	6.90671E-004	0.00000E+000	2.63239E-003	2.07950E+000	0.00000E+000	0.00000E+000	9	...........
	523	2620	3.81150E+000	6.90669E-004	0.00000E+000	2.63248E-003	2.07950E+000	0.00000E+000	0.00000E+000	9	...........
	524	2625	3.81164E+000	6.90672E-004	0.00000E+000	2.63259E-003	2.07950E+000	0.00000E+000	0.00000E+000	9	...........
	525	2630	3.81179E+000	6.90671E-004	0.00000E+000	2.63269E-003	2.07950E+000	0.00000E+000	0.00000E+000	9	...........
	526	2635	3.81192E+000	6.90672E-004	0.00000E+000	2.63279E-003	2.07950E+000	0.00000E+000	0.00000E+000	9	...........
	527	2640	3.81206E+000	6.90671E-004	0.00000E+000	2.63288E-003	2.07950E+000	0.00000E+000	0.00000E+000	9	...........
	528	2645	3.81221E+000	6.90670E-004	0.00000E+000	2.63298E-003	2.07950E+000	0.00000E+000	0.00000E+000	9	...........
	529	2650	3.81237E+000	6.90670E-004	0.00000E+000	2.63309E-003	2.07950E+000	0.00000E+000	0.00000E+000	9	...........
	530	2655	3.81252E+000	6.90670E-004	0.00000E+000	2.63319E-003	2.07950E+000	0.00000E+000	0.00000E+000	9	...........
	531	2660	3.81266E+000	6.90669E-004	0.00000E+000	2.63329E-003	2.07950E+000	0.00000E+000	0.00000E+000	9	...........
	532	2665	3.81280E+000	6.90671E-004	0.00000E+000	2.63339E-003	2.07950E+000	0.00000E+000	0.00000E+000	9	...........
	533	2670	3.81296E+000	6.90670E-004	0.00000E+000	2.63349E-003	2.07950E+000	0.00000E+000	0.00000E+000	9	...........
	534	2675	3.81310E+000	6.90669E-004	0.00000E+000	2.63359E-003	2.07950E+000	0.00000E+000	0.00000E+000	9	...........
	535	2680	3.81323E+000	6.90668E-004	0.00000E+000	2.63368E-003	2.07950E+000	0.00000E+000	0.00000E+000	9	...........
	536	2685	3.81339E+000	6.90670E-004	0.00000E+000	2.63379E-003	2.07950E+000	0.00000E+000	0.00000E+000	9	...........
	537	2690	3.81353E+000	6.90670E-004	0.00000E+000	2.63389E-003	2.07950E+000	0.00000E+000	0.00000E+000	9	...........
	538	2695	3.81368E+000	6.90669E-004	0.00000E+000	2.63399E-003	2.07950E+000	0.00000E+000	0.00000E+000	9	...........
	539	2700	3.81384E+000	6.90670E-004	0.00000E+000	2.63410E-003	2.07950E+000	0.00000E+000	0.00000E+000	9	...........
	540	2705	3.81397E+000	6.90669E-004	0.00000E+000	2.63419E-003	2.07950E+000	0.00000E+000	0.00000E+000	9	...........
	541	2710	3.81413E+000	6.90669E-004	0.00000E+000	2.63430E-003	2.07950E+000	0.00000E+000	0.00000E+000	9	...........
	542	2715	3.81426E+000	6.90671E-004	0.00000E+000	2.63440E-003	2.07950E+000	0.00000E+000	0.00000E+000	9	...........
	543	2720	3.81439E+000	6.90671E-004	0.00000E+000	2.63449E-003	2.07950E+000	0.00000E+000	0.00000E+000	9	...........
	544	2725	3.81455E+000	6.90670E-004	0.00000E+000	2.63459E-003	2.07950E+000	0.00000E+000	0.00000E+000	9	...........
	545	2730	3.81469E+000	6.90669E-004	0.00000E+000	2.63469E-003	2.07950E+000	0.00000E+000	0.00000E+000	9	...........
	546	2735	3.81483E+000	6.90670E-004	0.00000E+000	2.63479E-003	2.07950E+000	0.00000E+000	0.00000E+000	9	...........
	547	2740	3.81498E+000	6.90669E-004	0.00000E+000	2.63489E-003	2.07950E+000	0.00000E+000	0.00000E+000	9	...........
	548	2745	3.81511E+000	6.90670E-004	0.00000E+000	2.63498E-003	2.07950E+000	0.00000E+000	0.00000E+000	9	...........
	549	2750	3.81523E+000	6.90669E-004	0.00000E+000	2.63506E-003	2.07950E+000	0.00000E+000	0.00000E+000	9	...........
	550	2755	3.81538E+000	6.90670E-004	0.00000E+000	2.63517E-003	2.07950E+000	0.00000E+000	0.00000E+000	9	...........
	551	2760	3.81552E+000	6.90671E-004	0.00000E+000	2.63527E-003	2.07950E+000	0.00000E+000	0.00000E+000	9	...........
	552	2765	3.81567E+000	6.90671E-004	0.00000E+000	2.63537E-003	2.07950E+000	0.00000E+000	0.00000E+000	9	...........
	553	2770	3.81583E+000	6.90670E-004	0.00000E+000	2.63548E-003	2.07950E+000	0.00000E+000	0.00000E+000	9	...........
	554	2775	3.81597E+000	6.90672E-004	0.00000E+000	2.63559E-003	2.07950E+000	0.00000E+000	0.00000E+000	9	...........
	555	2780	3.81612E+000	6.90670E-004	0.00000E+000	2.63568E-003	2.07950E+000	0.00000E+000	0.00000E+000	9	...........
	556	2785	3.81628E+000	6.90670E-004	0.00000E+000	2.63579E-003	2.07950E+000	0.00000E+000	0.00000E+000	9	...........
	557	2790	3.81650E+000	6.90671E-004	0.00000E+000	2.63595E-003	2.07950E+000	0.00000E+000	0.00000E+000	9	...........
	558	2795	3.81666E+000	6.90672E-004	0.00000E+000	2.63606E-003	2.07950E+000	0.00000E+000	0.00000E+000	9	...........
	559	2800	3.81671E+000	6.90671E-004	0.00000E+000	2.63609E-003	2.07950E+000	0.00000E+000	0.00000E+000	9	...........
	560	2805	3.81679E+000	6.90671E-004	0.00000E+000	2.63615E-003	2.07950E+000	0.00000E+000	0.00000E+000	9	...........
	561	2810	3.81694E+000	6.90674E-004	0.00000E+000	2.63626E-003	2.07950E+000	0.00000E+000	0.00000E+000	9	...........
	562	2815	3.81708E+000	6.90674E-004	0.00000E+000	2.63636E-003	2.07950E+000	0.00000E+000	0.00000E+000	9	...........
	563	2820	3.81723E+000	6.90673E-004	0.00000E+000	2.63646E-003	2.07950E+000	0.00000E+000	0.00000E+000	9	...........
	564	2825	3.81738E+000	6.90675E-004	0.00000E+000	2.63657E-003	2.07950E+000	0.00000E+000	0.00000E+000	9	...........
	565	2830	3.81754E+000	6.90675E-004	0.00000E+000	2.63668E-003	2.07950E+000	0.00000E+000	0.00000E+000	9	...........
	566	2835	3.81768E+000	6.90673E-004	0.00000E+000	2.63677E-003	2.07950E+000	0.00000E+000	0.00000E+000	9	...........
	567	2840	3.81783E+000	6.90671E-004	0.00000E+000	2.63686E-003	2.07950E+000	0.00000E+000	0.00000E+000	9	...........
	568	2845	3.81799E+000	6.90673E-004	0.00000E+000	2.63698E-003	2.07950E+000	0.00000E+000	0.00000E+000	9	...........
	569	2850	3.81814E+000	6.90671E-004	0.00000E+000	2.63708E-003	2.07950E+000	0.00000E+000	0.00000E+000	9	...........
	570	2855	3.81829E+000	6.90671E-004	0.00000E+000	2.63718E-003	2.07950E+000	0.00000E+000	0.00000E+000	9	...........
	571	2860	3.81845E+000	6.90672E-004	0.00000E+000	2.63730E-003	2.07950E+000	0.00000E+000	0.00000E+000	9	...........
	572	2865	3.81860E+000	6.90672E-004	0.00000E+000	2.63740E-003	2.07950E+000	0.00000E+000	0.00000E+000	9	...........
	573	2870	3.81875E+000	6.90672E-004	0.00000E+000	2.63751E-003	2.07950E+000	0.00000E+000	0.00000E+000	9	...........
	574	2875	3.81891E+000	6.90672E-004	0.00000E+000	2.63761E-003	2.07950E+000	0.00000E+000	0.00000E+000	9	...........
	575	2880	3.81909E+000	6.90673E-004	0.00000E+000	2.63774E-003	2.07950E+000	0.00000E+000	0.00000E+000	9	...........
	576	2885	3.81924E+000	6.90673E-004	0.00000E+000	2.63785E-003	2.07950E+000	0.00000E+000	0.00000E+000	9	...........
	577	2890	3.81941E+000	6.90673E-004	0.00000E+000	2.63797E-003	2.07950E+000	0.00000E+000	0.00000E+000	9	...........
	578	2895	3.81955E+000	6.90673E-004	0.00000E+000	2.63806E-003	2.07950E+000	0.00000E+000	0.00000E+000	9	...........
	579	2900	3.81972E+000	6.90671E-004	0.00000E+000	2.63817E-003	2.07950E+000	0.00000E+000	0.00000E+000	9	...........
	580	2905	3.81988E+000	6.90671E-004	0.00000E+000	2.63828E-003	2.07950E+000	0.00000E+000	0.00000E+000	9	...........
	581	2910	3.82003E+000	6.90671E-004	0.00000E+000	2.63838E-003	2.07950E+000	0.00000E+000	0.00000E+000	9	...........
	582	2915	3.82020E+000	6.90672E-004	0.00000E+000	2.63850E-003	2.07950E+000	0.00000E+000	0.00000E+000	9	...........
	583	2920	3.82035E+000	6.90672E-004	0.00000E+000	2.63861E-003	2.07950E+000	0.00000E+000	0.00000E+000	9	...........
	584	2925	3.82051E+000	6.90672E-004	0.00000E+000	2.63872E-003	2.07950E+000	0.00000E+000	0.00000E+000	9	...........
	585	2930	3.82067E+000	6.90672E-004	0.00000E+000	2.63883E-003	2.07950E+000	0.00000E+000	0.00000E+000	9	...........
	586	2935	3.82081E+000	6.90672E-004	0.00000E+000	2.63893E-003	2.07950E+000	0.00000E+000	0.00000E+000	9	...........
	587	2940	3.82098E+000	6.90672E-004	0.00000E+000	2.63904E-003	2.07950E+000	0.00000E+000	0.00000E+000	9	...........
	588	2945	3.82113E+000	6.90672E-004	0.00000E+000	2.63915E-003	2.07950E+000	0.00000E+000	0.00000E+000	9	...........
	589	2950	3.82129E+000	6.90672E-004	0.00000E+000	2.63926E-003	2.07950E+000	0.00000E+000	0.00000E+000	9	...........
	590	2955	3.82144E+000	6.90673E-004	0.00000E+000	2.63936E-003	2.07950E+000	0.00000E+000	0.00000E+000	9	...........
	591	2960	3.82158E+000	6.90674E-004	0.00000E+000	2.63947E-003	2.07950E+000	0.00000E+000	0.00000E+000	9	...........
	592	2965	3.82173E+000	6.90673E-004	0.00000E+000	2.63957E-003	2.07950E+000	0.00000E+000	0.00000E+000	9	...........
	593	2970	3.82190E+000	6.90673E-004	0.00000E+000	2.63968E-003	2.07950E+000	0.00000E+000	0.00000E+000	9	...........
	594	2975	3.82205E+000	6.90673E-004	0.00000E+000	2.63979E-003	2.07950E+000	0.00000E+000	0.00000E+000	9	...........
	595	2980	3.82221E+000	6.90673E-004	0.00000E+000	2.63990E-003	2.07950E+000	0.00000E+000	0.00000E+000	9	...........
	596	2985	3.82237E+000	6.90673E-004	0.00000E+000	2.64001E-003	2.07950E+000	0.00000E+000	0.00000E+000	9	...........
	597	2990	3.82253E+000	6.90672E-004	0.00000E+000	2.64011E-003	2.07950E+000	0.00000E+000	0.00000E+000	9	...........
	598	2995	3.82269E+000	6.90672E-004	0.00000E+000	2.64022E-003	2.07950E+000	0.00000E+000	0.00000E+000	9	...........
	599	3000	3.82271E+000	6.90672E-004	0.00000E+000	2.64024E-003	2.07950E+000	0.00000E+000	0.00000E+000	9	...........
	600	3005	3.82262E+000	6.90672E-004	0.00000E+000	2.64018E-003	2.07950E+000	0.00000E+000	0.00000E+000	9	...........
	601	3010	3.82276E+000	6.90671E-004	0.00000E+000	2.64027E-003	2.07950E+000	0.00000E+000	0.00000E+000	9	...........
	602	3015	3.82292E+000	6.90673E-004	0.00000E+000	2.64039E-003	2.07950E+000	0.00000E+000	0.00000E+000	9	...........
	603	3020	3.82309E+000	6.90674E-004	0.00000E+000	2.64051E-003	2.07950E+000	0.00000E+000	0.00000E+000	9	...........
	604	3025	3.82325E+000	6.90673E-004	0.00000E+000	2.64062E-003	2.07950E+000	0.00000E+000	0.00000E+000	9	...........
	605	3030	3.82341E+000	6.90673E-004	0.00000E+000	2.64073E-003	2.07950E+000	0.00000E+000	0.00000E+000	9	...........
	606	3035	3.82357E+000	6.90673E-004	0.00000E+000	2.64083E-003	2.07950E+000	0.00000E+000	0.00000E+000	9	...........
	607	3040	3.82373E+000	6.90672E-004	0.00000E+000	2.64094E-003	2.07950E+000	0.00000E+000	0.00000E+000	9	...........
	608	3045	3.82389E+000	6.90673E-004	0.00000E+000	2.64106E-003	2.07950E+000	0.00000E+000	0.00000E+000	9	...........
	609	3050	3.82406E+000	6.90672E-004	0.00000E+000	2.64117E-003	2.07950E+000	0.00000E+000	0.00000E+000	9	...........
	610	3055	3.82422E+000	6.90673E-004	0.00000E+000	2.64128E-003	2.07950E+000	0.00000E+000	0.00000E+000	9	...........
	611	3060	3.82438E+000	6.90671E-004	0.00000E+000	2.64139E-003	2.07950E+000	0.00000E+000	0.00000E+000	9	...........
	612	3065	3.82455E+000	6.90672E-004	0.00000E+000	2.64151E-003	2.07950E+000	0.00000E+000	0.00000E+000	9	...........
	613	3070	3.82472E+000	6.90672E-004	0.00000E+000	2.64163E-003	2.07950E+000	0.00000E+000	0.00000E+000	9	...........
	614	3075	3.82488E+000	6.90672E-004	0.00000E+000	2.64174E-003	2.07950E+000	0.00000E+000	0.00000E+000	9	...........
	615	3080	3.82506E+000	6.90672E-004	0.00000E+000	2.64186E-003	2.07950E+000	0.00000E+000	0.00000E+000	9	...........
	616	3085	3.82521E+000	6.90673E-004	0.00000E+000	2.64197E-003	2.07950E+000	0.00000E+000	0.00000E+000	9	...........
	617	3090	3.82537E+000	6.90672E-004	0.00000E+000	2.64208E-003	2.07950E+000	0.00000E+000	0.00000E+000	9	...........
	618	3095	3.82555E+000	6.90673E-004	0.00000E+000	2.64220E-003	2.07950E+000	0.00000E+000	0.00000E+000	9	...........
	619	3100	3.82569E+000	6.90673E-004	0.00000E+000	2.64230E-003	2.07950E+000	0.00000E+000	0.00000E+000	9	...........
	620	3105	3.82586E+000	6.90673E-004	0.00000E+000	2.64242E-003	2.07950E+000	0.00000E+000	0.00000E+000	9	...........
	621	3110	3.82601E+000	6.90673E-004	0.00000E+000	2.64252E-003	2.07950E+000	0.00000E+000	0.00000E+000	9	...........
	622	3115	3.82619E+000	6.90672E-004	0.00000E+000	2.64264E-003	2.07950E+000	0.00000E+000	0.00000E+000	9	...........
	623	3120	3.82635E+000	6.90671E-004	0.00000E+000	2.64275E-003	2.07950E+000	0.00000E+000	0.00000E+000	9	...........
	624	3125	3.82652E+000	6.90670E-004	0.00000E+000	2.64286E-003	2.07950E+000	0.00000E+000	0.00000E+000	9	...........
	625	3130	3.82668E+000	6.90673E-004	0.00000E+000	2.64299E-003	2.07950E+000	0.00000E+000	0.00000E+000	9	...........
	626	3135	3.82685E+000	6.90673E-004	0.00000E+000	2.64310E-003	2.07950E+000	0.00000E+000	0.00000E+000	9	...........
	627	3140	3.82702E+000	6.90674E-004	0.00000E+000	2.64322E-003	2.07950E+000	0.00000E+000	0.00000E+000	9	...........
	628	3145	3.82718E+000	6.90673E-004	0.00000E+000	2.64333E-003	2.07950E+000	0.00000E+000	0.00000E+000	9	...........
	629	3150	3.82734E+000	6.90673E-004	0.00000E+000	2.64344E-003	2.07950E+000	0.00000E+000	0.00000E+000	9	...........
	630	3155	3.82751E+000	6.90674E-004	0.00000E+000	2.64356E-003	2.07950E+000	0.00000E+000	0.00000E+000	9	...........
	631	3160	3.82767E+000	6.90675E-004	0.00000E+000	2.64367E-003	2.07950E+000	0.00000E+000	0.00000E+000	9	...........
	632	3165	3.82782E+000	6.90673E-004	0.00000E+000	2.64377E-003	2.07950E+000	0.00000E+000	0.00000E+000	9	...........
	633	3170	3.82799E+000	6.90675E-004	0.00000E+000	2.64389E-003	2.07950E+000	0.00000E+000	0.00000E+000	9	...........
	634	3175	3.82814E+000	6.90673E-004	0.00000E+000	2.64400E-003	2.07950E+000	0.00000E+000	0.00000E+000	9	...........
	635	3180	3.82830E+000	6.90674E-004	0.00000E+000	2.64410E-003	2.07950E+000	0.00000E+000	0.00000E+000	9	...........
	636	3185	3.82846E+000	6.90673E-004	0.00000E+000	2.64422E-003	2.07950E+000	0.00000E+000	0.00000E+000	9	...........
	637	3190	3.82864E+000	6.90675E-004	0.00000E+000	2.64434E-003	2.07950E+000	0.00000E+000	0.00000E+000	9	...........
	638	3195	3.82879E+000	6.90673E-004	0.00000E+000	2.64444E-003	2.07950E+000	0.00000E+000	0.00000E+000	9	...........
	639	3200	3.82897E+000	6.90674E-004	0.00000E+000	2.64457E-003	2.07950E+000	0.00000E+000	0.00000E+000	9	...........
	640	3205	3.82913E+000	6.90673E-004	0.00000E+000	2.64467E-003	2.07950E+000	0.00000E+000	0.00000E+000	9	...........
	641	3210	3.82930E+000	6.90674E-004	0.00000E+000	2.64480E-003	2.07950E+000	0.00000E+000	0.00000E+000	9	...........
	642	3215	3.82946E+000	6.90673E-004	0.00000E+000	2.64491E-003	2.07950E+000	0.00000E+000	0.00000E+000	9	...........
	643	3220	3.82962E+000	6.90674E-004	0.00000E+000	2.64502E-003	2.07950E+000	0.00000E+000	0.00000E+000	9	...........
	644	3225	3.82978E+000	6.90673E-004	0.00000E+000	2.64512E-003	2.07950E+000	0.00000E+000	0.00000E+000	9	...........
	645	3230	3.82994E+000	6.90672E-004	0.00000E+000	2.64523E-003	2.07950E+000	0.00000E+000	0.00000E+000	9	...........
	646	3235	3.83012E+000	6.90672E-004	0.00000E+000	2.64535E-003	2.07950E+000	0.00000E+000	0.00000E+000	9	...........
	647	3240	3.83028E+000	6.90672E-004	0.00000E+000	2.64547E-003	2.07950E+000	0.00000E+000	0.00000E+000	9	...........
	648	3245	3.83044E+000	6.90672E-004	0.00000E+000	2.64558E-003	2.07950E+000	0.00000E+000	0.00000E+000	9	...........
	649	3250	3.83061E+000	6.90671E-004	0.00000E+000	2.64569E-003	2.07950E+000	0.00000E+000	0.00000E+000	9	...........
	650	3255	3.83078E+000	6.90671E-004	0.00000E+000	2.64581E-003	2.07950E+000	0.00000E+000	0.00000E+000	9	...........
	651	3260	3.83096E+000	6.90672E-004	0.00000E+000	2.64594E-003	2.07950E+000	0.00000E+000	0.00000E+000	9	...........
	652	3265	3.83109E+000	6.90673E-004	0.00000E+000	2.64603E-003	2.07950E+000	0.00000E+000	0.00000E+000	9	...........
	653	3270	3.83125E+000	6.90674E-004	0.00000E+000	2.64614E-003	2.07950E+000	0.00000E+000	0.00000E+000	9	...........
	654	3275	3.83142E+000	6.90673E-004	0.00000E+000	2.64626E-003	2.07950E+000	0.00000E+000	0.00000E+000	9	...........
	655	3280	3.83161E+000	6.90672E-004	0.00000E+000	2.64639E-003	2.07950E+000	0.00000E+000	0.00000E+000	9	...........
	656	3285	3.83180E+000	6.90672E-004	0.00000E+000	2.64652E-003	2.07950E+000	0.00000E+000	0.00000E+000	9	...........
	657	3290	3.83197E+000	6.90672E-004	0.00000E+000	2.64663E-003	2.07950E+000	0.00000E+000	0.00000E+000	9	...........
	658	3295	3.83214E+000	6.90671E-004	0.00000E+000	2.64675E-003	2.07950E+000	0.00000E+000	0.00000E+000	9	...........
	659	3300	3.83230E+000	6.90672E-004	0.00000E+000	2.64686E-003	2.07950E+000	0.00000E+000	0.00000E+000	9	...........
	660	3305	3.83242E+000	6.90671E-004	0.00000E+000	2.64695E-003	2.07950E+000	0.00000E+000	0.00000E+000	9	...........
	661	3310	3.83262E+000	6.90672E-004	0.00000E+000	2.64708E-003	2.07950E+000	0.00000E+000	0.00000E+000	9	...........
	662	3315	3.83281E+000	6.90672E-004	0.00000E+000	2.64721E-003	2.07950E+000	0.00000E+000	0.00000E+000	9	...........
	663	3320	3.83299E+000	6.90673E-004	0.00000E+000	2.64735E-003	2.07950E+000	0.00000E+000	0.00000E+000	9	...........
	664	3325	3.83318E+000	6.90673E-004	0.00000E+000	2.64747E-003	2.07950E+000	0.00000E+000	0.00000E+000	9	...........
	665	3330	3.83337E+000	6.90673E-004	0.00000E+000	2.64761E-003	2.07950E+000	0.00000E+000	0.00000E+000	9	...........
	666	3335	3.83354E+000	6.90673E-004	0.00000E+000	2.64772E-003	2.07950E+000	0.00000E+000	0.00000E+000	9	...........
	667	3340	3.83372E+000	6.90671E-004	0.00000E+000	2.64784E-003	2.07950E+000	0.00000E+000	0.00000E+000	9	...........
	668	3345	3.83390E+000	6.90671E-004	0.00000E+000	2.64796E-003	2.07950E+000	0.00000E+000	0.00000E+000	9	...........
	669	3350	3.83407E+000	6.90671E-004	0.00000E+000	2.64808E-003	2.07950E+000	0.00000E+000	0.00000E+000	9	...........
	670	3355	3.83424E+000	6.90673E-004	0.00000E+000	2.64821E-003	2.07950E+000	0.00000E+000	0.00000E+000	9	...........
	671	3360	3.83441E+000	6.90672E-004	0.00000E+000	2.64832E-003	2.07950E+000	0.00000E+000	0.00000E+000	9	...........
	672	3365	3.83460E+000	6.90673E-004	0.00000E+000	2.64845E-003	2.07950E+000	0.00000E+000	0.00000E+000	9	...........
	673	3370	3.83476E+000	6.90670E-004	0.00000E+000	2.64856E-003	2.07950E+000	0.00000E+000	0.00000E+000	9	...........
	674	3375	3.83495E+000	6.90671E-004	0.00000E+000	2.64869E-003	2.07950E+000	0.00000E+000	0.00000E+000	9	...........
	675	3380	3.83513E+000	6.90672E-004	0.00000E+000	2.64882E-003	2.07950E+000	0.00000E+000	0.00000E+000	9	...........
	676	3385	3.83533E+000	6.90672E-004	0.00000E+000	2.64896E-003	2.07950E+000	0.00000E+000	0.00000E+000	9	...........
	677	3390	3.83551E+000	6.90671E-004	0.00000E+000	2.64907E-003	2.07950E+000	0.00000E+000	0.00000E+000	9	...........
	678	3395	3.83568E+000	6.90671E-004	0.00000E+000	2.64919E-003	2.07950E+000	0.00000E+000	0.00000E+000	9	...........
	679	3400	3.83588E+000	6.90671E-004	0.00000E+000	2.64933E-003	2.07950E+000	0.00000E+000	0.00000E+000	9	...........
	680	3405	3.83607E+000	6.90672E-004	0.00000E+000	2.64946E-003	2.07950E+000	0.00000E+000	0.00000E+000	9	...........
	681	3410	3.83626E+000	6.90673E-004	0.00000E+000	2.64960E-003	2.07950E+000	0.00000E+000	0.00000E+000	9	...........
	682	3415	3.83647E+000	6.90674E-004	0.00000E+000	2.64975E-003	2.07950E+000	0.00000E+000	0.00000E+000	9	...........
	683	3420	3.83667E+000	6.90672E-004	0.00000E+000	2.64988E-003	2.07950E+000	0.00000E+000	0.00000E+000	9	...........
	684	3425	3.83684E+000	6.90672E-004	0.00000E+000	2.65000E-003	2.07950E+000	0.00000E+000	0.00000E+000	9	...........
	685	3430	3.83705E+000	6.90672E-004	0.00000E+000	2.65014E-003	2.07950E+000	0.00000E+000	0.00000E+000	9	...........
	686	3435	3.83722E+000	6.90671E-004	0.00000E+000	2.65026E-003	2.07950E+000	0.00000E+000	0.00000E+000	9	...........
	687	3440	3.83739E+000	6.90671E-004	0.00000E+000	2.65038E-003	2.07950E+000	0.00000E+000	0.00000E+000	9	...........
	688	3445	3.83759E+000	6.90672E-004	0.00000E+000	2.65051E-003	2.07950E+000	0.00000E+000	0.00000E+000	9	...........
	689	3450	3.83778E+000	6.90673E-004	0.00000E+000	2.65065E-003	2.07950E+000	0.00000E+000	0.00000E+000	9	...........
	690	3455	3.83796E+000	6.90673E-004	0.00000E+000	2.65078E-003	2.07950E+000	0.00000E+000	0.00000E+000	9	...........
	691	3460	3.83815E+000	6.90673E-004	0.00000E+000	2.65091E-003	2.07950E+000	0.00000E+000	0.00000E+000	9	...........
	692	3465	3.83834E+000	6.90672E-004	0.00000E+000	2.65104E-003	2.07950E+000	0.00000E+000	0.00000E+000	9	...........
	693	3470	3.83854E+000	6.90673E-004	0.00000E+000	2.65118E-003	2.07950E+000	0.00000E+000	0.00000E+000	9	...........
	694	3475	3.83874E+000	6.90673E-004	0.00000E+000	2.65131E-003	2.07950E+000	0.00000E+000	0.00000E+000	9	...........
	695	3480	3.83892E+000	6.90673E-004	0.00000E+000	2.65144E-003	2.07950E+000	0.00000E+000	0.00000E+000	9	...........
	696	3485	3.83912E+000	6.90672E-004	0.00000E+000	2.65157E-003	2.07950E+000	0.00000E+000	0.00000E+000	9	...........
	697	3490	3.83931E+000	6.90673E-004	0.00000E+000	2.65171E-003	2.07950E+000	0.00000E+000	0.00000E+000	9	...........
	698	3495	3.83951E+000	6.90670E-004	0.00000E+000	2.65183E-003	2.07950E+000	0.00000E+000	0.00000E+000	9	...........
	699	3500	3.83970E+000	6.90671E-004	0.00000E+000	2.65197E-003	2.07950E+000	0.00000E+000	0.00000E+000	9	...........
	700	3505	3.83989E+000	6.90673E-004	0.00000E+000	2.65211E-003	2.07950E+000	0.00000E+000	0.00000E+000	9	...........
	701	3510	3.84007E+000	6.90672E-004	0.00000E+000	2.65223E-003	2.07950E+000	0.00000E+000	0.00000E+000	9	...........
	702	3515	3.84028E+000	6.90672E-004	0.00000E+000	2.65237E-003	2.07950E+000	0.00000E+000	0.00000E+000	9	...........
	703	3520	3.84046E+000	6.90670E-004	0.00000E+000	2.65249E-003	2.07950E+000	0.00000E+000	0.00000E+000	9	...........
	704	3525	3.84066E+000	6.90671E-004	0.00000E+000	2.65263E-003	2.07950E+000	0.00000E+000	0.00000E+000	9	...........
	705	3530	3.84086E+000	6.90673E-004	0.00000E+000	2.65277E-003	2.07950E+000	0.00000E+000	0.00000E+000	9	...........
	706	3535	3.84106E+000	6.90672E-004	0.00000E+000	2.65291E-003	2.07950E+000	0.00000E+000	0.00000E+000	9	...........
	707	3540	3.84124E+000	6.90672E-004	0.00000E+000	2.65304E-003	2.07950E+000	0.00000E+000	0.00000E+000	9	...........
	708	3545	3.84144E+000	6.90671E-004	0.00000E+000	2.65317E-003	2.07950E+000	0.00000E+000	0.00000E+000	9	...........
	709	3550	3.84163E+000	6.90671E-004	0.00000E+000	2.65330E-003	2.07950E+000	0.00000E+000	0.00000E+000	9	...........
	710	3555	3.84183E+000	6.90671E-004	0.00000E+000	2.65344E-003	2.07950E+000	0.00000E+000	0.00000E+000	9	...........
	711	3560	3.84203E+000	6.90671E-004	0.00000E+000	2.65358E-003	2.07950E+000	0.00000E+000	0.00000E+000	9	...........
	712	3565	3.84223E+000	6.90673E-004	0.00000E+000	2.65372E-003	2.07950E+000	0.00000E+000	0.00000E+000	9	...........
	713	3570	3.84240E+000	6.90674E-004	0.00000E+000	2.65385E-003	2.07950E+000	0.00000E+000	0.00000E+000	9	...........
	714	3575	3.84259E+000	6.90674E-004	0.00000E+000	2.65398E-003	2.07950E+000	0.00000E+000	0.00000E+000	9	...........
	715	3580	3.84280E+000	6.90672E-004	0.00000E+000	2.65411E-003	2.07950E+000	0.00000E+000	0.00000E+000	9	...........
	716	3585	3.84301E+000	6.90672E-004	0.00000E+000	2.65426E-003	2.07950E+000	0.00000E+000	0.00000E+000	9	...........
	717	3590	3.84321E+000	6.90672E-004	0.00000E+000	2.65440E-003	2.07950E+000	0.00000E+000	0.00000E+000	9	...........
	718	3595	3.84343E+000	6.90674E-004	0.00000E+000	2.65456E-003	2.07950E+000	0.00000E+000	0.00000E+000	9	...........
	719	3600	3.84362E+000	6.90673E-004	0.00000E+000	2.65469E-003	2.07950E+000	0.00000E+000	0.00000E+000	9	...........
	720	3605	3.84383E+000	6.90674E-004	0.00000E+000	2.65483E-003	2.07950E+000	0.00000E+000	0.00000E+000	9	...........
	721	3610	3.84402E+000	6.90673E-004	0.00000E+000	2.65496E-003	2.07950E+000	0.00000E+000	0.00000E+000	9	...........
	722	3615	3.84422E+000	6.90674E-004	0.00000E+000	2.65510E-003	2.07950E+000	0.00000E+000	0.00000E+000	9	...........
	723	3620	3.84441E+000	6.90673E-004	0.00000E+000	2.65523E-003	2.07950E+000	0.00000E+000	0.00000E+000	9	...........
	724	3625	3.84461E+000	6.90672E-004	0.00000E+000	2.65537E-003	2.07950E+000	0.00000E+000	0.00000E+000	9	...........
	725	3630	3.84482E+000	6.90672E-004	0.00000E+000	2.65551E-003	2.07950E+000	0.00000E+000	0.00000E+000	9	...........
	726	3635	3.84505E+000	6.90671E-004	0.00000E+000	2.65567E-003	2.07950E+000	0.00000E+000	0.00000E+000	9	...........
	727	3640	3.84531E+000	6.90671E-004	0.00000E+000	2.65585E-003	2.07950E+000	0.00000E+000	0.00000E+000	9	...........
	728	3645	3.84553E+000	6.90672E-004	0.00000E+000	2.65600E-003	2.07950E+000	0.00000E+000	0.00000E+000	9	...........
	729	3650	3.84575E+000	6.90672E-004	0.00000E+000	2.65615E-003	2.07950E+000	0.00000E+000	0.00000E+000	9	...........
	730	3655	3.84596E+000	6.90671E-004	0.00000E+000	2.65630E-003	2.07950E+000	0.00000E+000	0.00000E+000	9	...........
	731	3660	3.84619E+000	6.90671E-004	0.00000E+000	2.65645E-003	2.07950E+000	0.00000E+000	0.00000E+000	9	...........
	732	3665	3.84653E+000	6.90672E-004	0.00000E+000	2.65669E-003	2.07950E+000	0.00000E+000	0.00000E+000	9	...........
	733	3670	3.84683E+000	6.90672E-004	0.00000E+000	2.65690E-003	2.07950E+000	0.00000E+000	0.00000E+000	9	...........
	734	3675	3.84705E+000	6.90671E-004	0.00000E+000	2.65704E-003	2.07950E+000	0.00000E+000	0.00000E+000	9	...........
	735	3680	3.84725E+000	6.90672E-004	0.00000E+000	2.65719E-003	2.07950E+000	0.00000E+000	0.00000E+000	9	...........
	736	3685	3.84746E+000	6.90671E-004	0.00000E+000	2.65733E-003	2.07950E+000	0.00000E+000	0.00000E+000	9	...........
	737	3690	3.84766E+000	6.90672E-004	0.00000E+000	2.65747E-003	2.07950E+000	0.00000E+000	0.00000E+000	9	...........
	738	3695	3.84788E+000	6.90673E-004	0.00000E+000	2.65763E-003	2.07950E+000	0.00000E+000	0.00000E+000	9	...........
	739	3700	3.84809E+000	6.90673E-004	0.00000E+000	2.65777E-003	2.07950E+000	0.00000E+000	0.00000E+000	9	...........
	740	3705	3.84831E+000	6.90673E-004	0.00000E+000	2.65792E-003	2.07950E+000	0.00000E+000	0.00000E+000	9	...........
	741	3710	3.84851E+000	6.90672E-004	0.00000E+000	2.65806E-003	2.07950E+000	0.00000E+000	0.00000E+000	9	...........
	742	3715	3.84872E+000	6.90670E-004	0.00000E+000	2.65820E-003	2.07950E+000	0.00000E+000	0.00000E+000	9	...........
	743	3720	3.84894E+000	6.90670E-004	0.00000E+000	2.65835E-003	2.07950E+000	0.00000E+000	0.00000E+000	9	...........
	744	3725	3.84917E+000	6.90670E-004	0.00000E+000	2.65851E-003	2.07950E+000	0.00000E+000	0.00000E+000	9	...........
	745	3730	3.84944E+000	6.90671E-004	0.00000E+000	2.65870E-003	2.07950E+000	0.00000E+000	0.00000E+000	9	...........
	746	3735	3.84966E+000	6.90671E-004	0.00000E+000	2.65885E-003	2.07950E+000	0.00000E+000	0.00000E+000	9	...........
	747	3740	3.84988E+000	6.90672E-004	0.00000E+000	2.65901E-003	2.07950E+000	0.00000E+000	0.00000E+000	9	...........
	748	3745	3.85009E+000	6.90671E-004	0.00000E+000	2.65915E-003	2.07950E+000	0.00000E+000	0.00000E+000	9	...........
	749	3750	3.85030E+000	6.90671E-004	0.00000E+000	2.65929E-003	2.07950E+000	0.00000E+000	0.00000E+000	9	...........
	750	3755	3.85053E+000	6.90672E-004	0.00000E+000	2.65946E-003	2.07950E+000	0.00000E+000	0.00000E+000	9	...........
	751	3760	3.85075E+000	6.90672E-004	0.00000E+000	2.65961E-003	2.07950E+000	0.00000E+000	0.00000E+000	9	...........
	752	3765	3.85096E+000	6.90673E-004	0.00000E+000	2.65975E-003	2.07950E+000	0.00000E+000	0.00000E+000	9	...........
	753	3770	3.85118E+000	6.90673E-004	0.00000E+000	2.65991E-003	2.07950E+000	0.00000E+000	0.00000E+000	9	...........
	754	3775	3.85141E+000	6.90673E-004	0.00000E+000	2.66006E-003	2.07950E+000	0.00000E+000	0.00000E+000	9	...........
	755	3780	3.85162E+000	6.90672E-004	0.00000E+000	2.66021E-003	2.07950E+000	0.00000E+000	0.00000E+000	9	...........
	756	3785	3.85185E+000	6.90673E-004	0.00000E+000	2.66037E-003	2.07950E+000	0.00000E+000	0.00000E+000	9	...........
	757	3790	3.85206E+000	6.90673E-004	0.00000E+000	2.66052E-003	2.07950E+000	0.00000E+000	0.00000E+000	9	...........
	758	3795	3.85229E+000	6.90672E-004	0.00000E+000	2.66067E-003	2.07950E+000	0.00000E+000	0.00000E+000	9	...........
	759	3800	3.85251E+000	6.90672E-004	0.00000E+000	2.66082E-003	2.07950E+000	0.00000E+000	0.00000E+000	9	...........
	760	3805	3.85273E+000	6.90671E-004	0.00000E+000	2.66097E-003	2.07950E+000	0.00000E+000	0.00000E+000	9	...........
	761	3810	3.85295E+000	6.90671E-004	0.00000E+000	2.66112E-003	2.07950E+000	0.00000E+000	0.00000E+000	9	...........
	762	3815	3.85318E+000	6.90673E-004	0.00000E+000	2.66129E-003	2.07950E+000	0.00000E+000	0.00000E+000	9	...........
	763	3820	3.85339E+000	6.90672E-004	0.00000E+000	2.66143E-003	2.07950E+000	0.00000E+000	0.00000E+000	9	...........
	764	3825	3.85354E+000	6.90673E-004	0.00000E+000	2.66153E-003	2.07950E+000	0.00000E+000	0.00000E+000	9	...........
	765	3830	3.85360E+000	6.90674E-004	0.00000E+000	2.66158E-003	2.07950E+000	0.00000E+000	0.00000E+000	9	...........
	766	3835	3.85380E+000	6.90673E-004	0.00000E+000	2.66171E-003	2.07950E+000	0.00000E+000	0.00000E+000	9	...........
	767	3840	3.85402E+000	6.90672E-004	0.00000E+000	2.66186E-003	2.07950E+000	0.00000E+000	0.00000E+000	9	...........
	768	3845	3.85425E+000	6.90670E-004	0.00000E+000	2.66202E-003	2.07950E+000	0.00000E+000	0.00000E+000	9	...........
	769	3850	3.85449E+000	6.90672E-004	0.00000E+000	2.66219E-003	2.07950E+000	0.00000E+000	0.00000E+000	9	...........
	770	3855	3.85472E+000	6.90671E-004	0.00000E+000	2.66234E-003	2.07950E+000	0.00000E+000	0.00000E+000	9	...........
	771	3860	3.85495E+000	6.90671E-004	0.00000E+000	2.66250E-003	2.07950E+000	0.00000E+000	0.00000E+000	9	...........
	772	3865	3.85518E+000	6.90672E-004	0.00000E+000	2.66266E-003	2.07950E+000	0.00000E+000	0.00000E+000	9	...........
	773	3870	3.85542E+000	6.90671E-004	0.00000E+000	2.66283E-003	2.07950E+000	0.00000E+000	0.00000E+000	9	...........
	774	3875	3.85566E+000	6.90671E-004	0.00000E+000	2.66299E-003	2.07950E+000	0.00000E+000	0.00000E+000	9	...........
	775	3880	3.85590E+000	6.90670E-004	0.00000E+000	2.66315E-003	2.07950E+000	0.00000E+000	0.00000E+000	9	...........
	776	3885	3.85614E+000	6.90671E-004	0.00000E+000	2.66332E-003	2.07950E+000	0.00000E+000	0.00000E+000	9	...........
	777	3890	3.85637E+000	6.90672E-004	0.00000E+000	2.66349E-003	2.07950E+000	0.00000E+000	0.00000E+000	9	...........
	778	3895	3.85661E+000	6.90671E-004	0.00000E+000	2.66365E-003	2.07950E+000	0.00000E+000	0.00000E+000	9	...........
	779	3900	3.85685E+000	6.90670E-004	0.00000E+000	2.66381E-003	2.07950E+000	0.00000E+000	0.00000E+000	9	...........
	780	3905	3.85707E+000	6.90671E-004	0.00000E+000	2.66397E-003	2.07950E+000	0.00000E+000	0.00000E+000	9	...........
	781	3910	3.85730E+000	6.90671E-004	0.00000E+000	2.66412E-003	2.07950E+000	0.00000E+000	0.00000E+000	9	...........
	782	3915	3.85755E+000	6.90670E-004	0.00000E+000	2.66429E-003	2.07950E+000	0.00000E+000	0.00000E+000	9	...........
	783	3920	3.85780E+000	6.90670E-004	0.00000E+000	2.66446E-003	2.07950E+000	0.00000E+000	0.00000E+000	9	...........
	784	3925	3.85803E+000	6.90669E-004	0.00000E+000	2.66463E-003	2.07950E+000	0.00000E+000	0.00000E+000	9	...........
	785	3930	3.85828E+000	6.90670E-004	0.00000E+000	2.66480E-003	2.07950E+000	0.00000E+000	0.00000E+000	9	...........
	786	3935	3.85853E+000	6.90670E-004	0.00000E+000	2.66497E-003	2.07950E+000	0.00000E+000	0.00000E+000	9	...........
	787	3940	3.85878E+000	6.90670E-004	0.00000E+000	2.66514E-003	2.07950E+000	0.00000E+000	0.00000E+000	9	...........
	788	3945	3.85902E+000	6.90672E-004	0.00000E+000	2.66531E-003	2.07950E+000	0.00000E+000	0.00000E+000	9	...........
	789	3950	3.85925E+000	6.90671E-004	0.00000E+000	2.66547E-003	2.07950E+000	0.00000E+000	0.00000E+000	9	...........
	790	3955	3.85950E+000	6.90671E-004	0.00000E+000	2.66564E-003	2.07950E+000	0.00000E+000	0.00000E+000	9	...........
	791	3960	3.85974E+000	6.90671E-004	0.00000E+000	2.66581E-003	2.07950E+000	0.00000E+000	0.00000E+000	9	...........
	792	3965	3.85999E+000	6.90673E-004	0.00000E+000	2.66599E-003	2.07950E+000	0.00000E+000	0.00000E+000	9	...........
	793	3970	3.86024E+000	6.90671E-004	0.00000E+000	2.66616E-003	2.07950E+000	0.00000E+000	0.00000E+000	9	...........
	794	3975	3.86050E+000	6.90672E-004	0.00000E+000	2.66634E-003	2.07950E+000	0.00000E+000	0.00000E+000	9	...........
	795	3980	3.86074E+000	6.90671E-004	0.00000E+000	2.66650E-003	2.07950E+000	0.00000E+000	0.00000E+000	9	...........
	796	3985	3.86098E+000	6.90671E-004	0.00000E+000	2.66667E-003	2.07950E+000	0.00000E+000	0.00000E+000	9	...........
	797	3990	3.86124E+000	6.90673E-004	0.00000E+000	2.66685E-003	2.07950E+000	0.00000E+000	0.00000E+000	9	...........
	798	3995	3.86149E+000	6.90673E-004	0.00000E+000	2.66703E-003	2.07950E+000	0.00000E+000	0.00000E+000	9	...........
	799	4000	3.86174E+000	6.90673E-004	0.00000E+000	2.66720E-003	2.07950E+000	0.00000E+000	0.00000E+000	9	...........
	800	4005	3.86200E+000	6.90670E-004	0.00000E+000	2.66737E-003	2.07950E+000	0.00000E+000	0.00000E+000	9	...........
	801	4010	3.86225E+000	6.90671E-004	0.00000E+000	2.66754E-003	2.07950E+000	0.00000E+000	0.00000E+000	9	...........
	802	4015	3.86251E+000	6.90671E-004	0.00000E+000	2.66772E-003	2.07950E+000	0.00000E+000	0.00000E+000	9	...........
	803	4020	3.86278E+000	6.90672E-004	0.00000E+000	2.66791E-003	2.07950E+000	0.00000E+000	0.00000E+000	9	...........
	804	4025	3.86304E+000	6.90671E-004	0.00000E+000	2.66809E-003	2.07950E+000	0.00000E+000	0.00000E+000	9	...........
	805	4030	3.86330E+000	6.90672E-004	0.00000E+000	2.66827E-003	2.07950E+000	0.00000E+000	0.00000E+000	9	...........
	806	4035	3.86348E+000	6.90673E-004	0.00000E+000	2.66840E-003	2.07950E+000	0.00000E+000	0.00000E+000	9	...........
	807	4040	3.86375E+000	6.90673E-004	0.00000E+000	2.66858E-003	2.07950E+000	0.00000E+000	0.00000E+000	9	...........
	808	4045	3.86400E+000	6.90671E-004	0.00000E+000	2.66875E-003	2.07950E+000	0.00000E+000	0.00000E+000	9	...........
	809	4050	3.86427E+000	6.90672E-004	0.00000E+000	2.66895E-003	2.07950E+000	0.00000E+000	0.00000E+000	9	...........
	810	4055	3.86452E+000	6.90671E-004	0.00000E+000	2.66911E-003	2.07950E+000	0.00000E+000	0.00000E+000	9	...........
	811	4060	3.86478E+000	6.90670E-004	0.00000E+000	2.66929E-003	2.07950E+000	0.00000E+000	0.00000E+000	9	...........
	812	4065	3.86507E+000	6.90672E-004	0.00000E+000	2.66949E-003	2.07950E+000	0.00000E+000	0.00000E+000	9	...........
	813	4070	3.86534E+000	6.90672E-004	0.00000E+000	2.66968E-003	2.07950E+000	0.00000E+000	0.00000E+000	9	...........
	814	4075	3.86559E+000	6.90673E-004	0.00000E+000	2.66986E-003	2.07950E+000	0.00000E+000	0.00000E+000	9	...........
	815	4080	3.86587E+000	6.90672E-004	0.00000E+000	2.67004E-003	2.07950E+000	0.00000E+000	0.00000E+000	9	...........
	816	4085	3.86611E+000	6.90672E-004	0.00000E+000	2.67022E-003	2.07950E+000	0.00000E+000	0.00000E+000	9	...........
	817	4090	3.86635E+000	6.90672E-004	0.00000E+000	2.67038E-003	2.07950E+000	0.00000E+000	0.00000E+000	9	...........
	818	4095	3.86661E+000	6.90673E-004	0.00000E+000	2.67056E-003	2.07950E+000	0.00000E+000	0.00000E+000	9	...........
	819	4100	3.86690E+000	6.90673E-004	0.00000E+000	2.67076E-003	2.07950E+000	0.00000E+000	0.00000E+000	9	...........
	820	4105	3.86716E+000	6.90673E-004	0.00000E+000	2.67094E-003	2.07950E+000	0.00000E+000	0.00000E+000	9	...........
	821	4110	3.86744E+000	6.90672E-004	0.00000E+000	2.67113E-003	2.07950E+000	0.00000E+000	0.00000E+000	9	...........
	822	4115	3.86770E+000	6.90670E-004	0.00000E+000	2.67131E-003	2.07950E+000	0.00000E+000	0.00000E+000	9	...........
	823	4120	3.86798E+000	6.90672E-004	0.00000E+000	2.67150E-003	2.07950E+000	0.00000E+000	0.00000E+000	9	...........
	824	4125	3.86825E+000	6.90671E-004	0.00000E+000	2.67169E-003	2.07950E+000	0.00000E+000	0.00000E+000	9	...........
	825	4130	3.86853E+000	6.90671E-004	0.00000E+000	2.67188E-003	2.07950E+000	0.00000E+000	0.00000E+000	9	...........
	826	4135	3.86881E+000	6.90672E-004	0.00000E+000	2.67208E-003	2.07950E+000	0.00000E+000	0.00000E+000	9	...........
	827	4140	3.86909E+000	6.90671E-004	0.00000E+000	2.67227E-003	2.07950E+000	0.00000E+000	0.00000E+000	9	...........
	828	4145	3.86936E+000	6.90670E-004	0.00000E+000	2.67245E-003	2.07950E+000	0.00000E+000	0.00000E+000	9	...........
	829	4150	3.86963E+000	6.90670E-004	0.00000E+000	2.67264E-003	2.07950E+000	0.00000E+000	0.00000E+000	9	...........
	830	4155	3.86990E+000	6.90670E-004	0.00000E+000	2.67282E-003	2.07950E+000	0.00000E+000	0.00000E+000	9	...........
	831	4160	3.87018E+000	6.90670E-004	0.00000E+000	2.67302E-003	2.07950E+000	0.00000E+000	0.00000E+000	9	...........
	832	4165	3.87046E+000	6.90670E-004	0.00000E+000	2.67321E-003	2.07950E+000	0.00000E+000	0.00000E+000	9	...........
	833	4170	3.87075E+000	6.90669E-004	0.00000E+000	2.67341E-003	2.07950E+000	0.00000E+000	0.00000E+000	9	...........
	834	4175	3.87105E+000	6.90670E-004	0.00000E+000	2.67362E-003	2.07950E+000	0.00000E+000	0.00000E+000	9	...........
	835	4180	3.87134E+000	6.90669E-004	0.00000E+000	2.67381E-003	2.07950E+000	0.00000E+000	0.00000E+000	9	...........
	836	4185	3.87162E+000	6.90669E-004	0.00000E+000	2.67401E-003	2.07950E+000	0.00000E+000	0.00000E+000	9	...........
	837	4190	3.87192E+000	6.90669E-004	0.00000E+000	2.67422E-003	2.07950E+000	0.00000E+000	0.00000E+000	9	...........
	838	4195	3.87221E+000	6.90669E-004	0.00000E+000	2.67442E-003	2.07950E+000	0.00000E+000	0.00000E+000	9	...........
	839	4200	3.87249E+000	6.90669E-004	0.00000E+000	2.67460E-003	2.07950E+000	0.00000E+000	0.00000E+000	9	...........
	840	4205	3.87277E+000	6.90670E-004	0.00000E+000	2.67481E-003	2.07950E+000	0.00000E+000	0.00000E+000	9	...........
	841	4210	3.87306E+000	6.90669E-004	0.00000E+000	2.67501E-003	2.07950E+000	0.00000E+000	0.00000E+000	9	...........
	842	4215	3.87335E+000	6.90669E-004	0.00000E+000	2.67520E-003	2.07950E+000	0.00000E+000	0.00000E+000	9	...........
	843	4220	3.87366E+000	6.90669E-004	0.00000E+000	2.67541E-003	2.07950E+000	0.00000E+000	0.00000E+000	9	...........
	844	4225	3.87395E+000	6.90669E-004	0.00000E+000	2.67562E-003	2.07950E+000	0.00000E+000	0.00000E+000	9	...........
	845	4230	3.87425E+000	6.90670E-004	0.00000E+000	2.67583E-003	2.07950E+000	0.00000E+000	0.00000E+000	9	...........
	846	4235	3.87456E+000	6.90671E-004	0.00000E+000	2.67604E-003	2.07950E+000	0.00000E+000	0.00000E+000	9	...........
	847	4240	3.87484E+000	6.90670E-004	0.00000E+000	2.67624E-003	2.07950E+000	0.00000E+000	0.00000E+000	9	...........
	848	4245	3.87514E+000	6.90670E-004	0.00000E+000	2.67645E-003	2.07950E+000	0.00000E+000	0.00000E+000	9	...........
	849	4250	3.87544E+000	6.90671E-004	0.00000E+000	2.67665E-003	2.07950E+000	0.00000E+000	0.00000E+000	9	...........
	850	4255	3.87574E+000	6.90671E-004	0.00000E+000	2.67686E-003	2.07950E+000	0.00000E+000	0.00000E+000	9	...........
	851	4260	3.87605E+000	6.90671E-004	0.00000E+000	2.67708E-003	2.07950E+000	0.00000E+000	0.00000E+000	9	...........
	852	4265	3.87634E+000	6.90671E-004	0.00000E+000	2.67728E-003	2.07950E+000	0.00000E+000	0.00000E+000	9	...........
	853	4270	3.87665E+000	6.90670E-004	0.00000E+000	2.67748E-003	2.07950E+000	0.00000E+000	0.00000E+000	9	...........
	854	4275	3.87695E+000	6.90670E-004	0.00000E+000	2.67769E-003	2.07950E+000	0.00000E+000	0.00000E+000	9	...........
	855	4280	3.87724E+000	6.90669E-004	0.00000E+000	2.67789E-003	2.07950E+000	0.00000E+000	0.00000E+000	9	...........
	856	4285	3.87754E+000	6.90669E-004	0.00000E+000	2.67810E-003	2.07950E+000	0.00000E+000	0.00000E+000	9	...........
	857	4290	3.87784E+000	6.90669E-004	0.00000E+000	2.67830E-003	2.07950E+000	0.00000E+000	0.00000E+000	9	...........
	858	4295	3.87815E+000	6.90670E-004	0.00000E+000	2.67852E-003	2.07950E+000	0.00000E+000	0.00000E+000	9	...........
	859	4300	3.87846E+000	6.90670E-004	0.00000E+000	2.67873E-003	2.07950E+000	0.00000E+000	0.00000E+000	9	...........
	860	4305	3.87876E+000	6.90670E-004	0.00000E+000	2.67894E-003	2.07950E+000	0.00000E+000	0.00000E+000	9	...........
	861	4310	3.87907E+000	6.90670E-004	0.00000E+000	2.67916E-003	2.07950E+000	0.00000E+000	0.00000E+000	9	...........
	862	4315	3.87939E+000	6.90670E-004	0.00000E+000	2.67938E-003	2.07950E+000	0.00000E+000	0.00000E+000	9	...........
	863	4320	3.87969E+000	6.90672E-004	0.00000E+000	2.67959E-003	2.07950E+000	0.00000E+000	0.00000E+000	9	...........
	864	4325	3.88001E+000	6.90670E-004	0.00000E+000	2.67980E-003	2.07950E+000	0.00000E+000	0.00000E+000	9	...........
	865	4330	3.88033E+000	6.90670E-004	0.00000E+000	2.68002E-003	2.07950E+000	0.00000E+000	0.00000E+000	9	...........
	866	4335	3.88063E+000	6.90671E-004	0.00000E+000	2.68023E-003	2.07950E+000	0.00000E+000	0.00000E+000	9	...........
	867	4340	3.88093E+000	6.90669E-004	0.00000E+000	2.68044E-003	2.07950E+000	0.00000E+000	0.00000E+000	9	...........
	868	4345	3.88124E+000	6.90670E-004	0.00000E+000	2.68066E-003	2.07950E+000	0.00000E+000	0.00000E+000	9	...........
	869	4350	3.88157E+000	6.90672E-004	0.00000E+000	2.68089E-003	2.07950E+000	0.00000E+000	0.00000E+000	9	...........
	870	4355	3.88188E+000	6.90672E-004	0.00000E+000	2.68110E-003	2.07950E+000	0.00000E+000	0.00000E+000	9	...........
	871	4360	3.88220E+000	6.90670E-004	0.00000E+000	2.68132E-003	2.07950E+000	0.00000E+000	0.00000E+000	9	...........
	872	4365	3.88233E+000	6.90670E-004	0.00000E+000	2.68141E-003	2.07950E+000	0.00000E+000	0.00000E+000	9	...........
	873	4370	3.88250E+000	6.90671E-004	0.00000E+000	2.68153E-003	2.07950E+000	0.00000E+000	0.00000E+000	9	...........
	874	4375	3.88280E+000	6.90671E-004	0.00000E+000	2.68174E-003	2.07950E+000	0.00000E+000	0.00000E+000	9	...........
	875	4380	3.88313E+000	6.90670E-004	0.00000E+000	2.68196E-003	2.07950E+000	0.00000E+000	0.00000E+000	9	...........
	876	4385	3.88345E+000	6.90670E-004	0.00000E+000	2.68218E-003	2.07950E+000	0.00000E+000	0.00000E+000	9	...........
	877	4390	3.88378E+000	6.90670E-004	0.00000E+000	2.68241E-003	2.07950E+000	0.00000E+000	0.00000E+000	9	...........
	878	4395	3.88412E+000	6.90669E-004	0.00000E+000	2.68264E-003	2.07950E+000	0.00000E+000	0.00000E+000	9	...........
	879	4400	3.88447E+000	6.90670E-004	0.00000E+000	2.68288E-003	2.07950E+000	0.00000E+000	0.00000E+000	9	...........
	880	4405	3.88478E+000	6.90671E-004	0.00000E+000	2.68311E-003	2.07950E+000	0.00000E+000	0.00000E+000	9	...........
	881	4410	3.88512E+000	6.90671E-004	0.00000E+000	2.68334E-003	2.07950E+000	0.00000E+000	0.00000E+000	9	...........
	882	4415	3.88541E+000	6.90672E-004	0.00000E+000	2.68354E-003	2.07950E+000	0.00000E+000	0.00000E+000	9	...........
	883	4420	3.88574E+000	6.90672E-004	0.00000E+000	2.68377E-003	2.07950E+000	0.00000E+000	0.00000E+000	9	...........
	884	4425	3.88607E+000	6.90670E-004	0.00000E+000	2.68399E-003	2.07950E+000	0.00000E+000	0.00000E+000	9	...........
	885	4430	3.88642E+000	6.90671E-004	0.00000E+000	2.68424E-003	2.07950E+000	0.00000E+000	0.00000E+000	9	...........
	886	4435	3.88676E+000	6.90671E-004	0.00000E+000	2.68448E-003	2.07950E+000	0.00000E+000	0.00000E+000	9	...........
	887	4440	3.88711E+000	6.90672E-004	0.00000E+000	2.68472E-003	2.07950E+000	0.00000E+000	0.00000E+000	9	...........
	888	4445	3.88745E+000	6.90671E-004	0.00000E+000	2.68495E-003	2.07950E+000	0.00000E+000	0.00000E+000	9	...........
	889	4450	3.88779E+000	6.90670E-004	0.00000E+000	2.68518E-003	2.07950E+000	0.00000E+000	0.00000E+000	9	...........
	890	4455	3.88806E+000	6.90671E-004	0.00000E+000	2.68537E-003	2.07950E+000	0.00000E+000	0.00000E+000	9	...........
	891	4460	3.88829E+000	6.90671E-004	0.00000E+000	2.68553E-003	2.07950E+000	0.00000E+000	0.00000E+000	9	...........
	892	4465	3.88862E+000	6.90670E-004	0.00000E+000	2.68575E-003	2.07950E+000	0.00000E+000	0.00000E+000	9	...........
	893	4470	3.88899E+000	6.90671E-004	0.00000E+000	2.68601E-003	2.07950E+000	0.00000E+000	0.00000E+000	9	...........
	894	4475	3.88932E+000	6.90669E-004	0.00000E+000	2.68624E-003	2.07950E+000	0.00000E+000	0.00000E+000	9	...........
	895	4480	3.88968E+000	6.90671E-004	0.00000E+000	2.68649E-003	2.07950E+000	0.00000E+000	0.00000E+000	9	...........
	896	4485	3.89003E+000	6.90670E-004	0.00000E+000	2.68673E-003	2.07950E+000	0.00000E+000	0.00000E+000	9	...........
	897	4490	3.89038E+000	6.90672E-004	0.00000E+000	2.68698E-003	2.07950E+000	0.00000E+000	0.00000E+000	9	...........
	898	4495	3.89074E+000	6.90671E-004	0.00000E+000	2.68722E-003	2.07950E+000	0.00000E+000	0.00000E+000	9	...........
	899	4500	3.89109E+000	6.90672E-004	0.00000E+000	2.68747E-003	2.07950E+000	0.00000E+000	0.00000E+000	9	...........
	900	4505	3.89145E+000	6.90673E-004	0.00000E+000	2.68772E-003	2.07950E+000	0.00000E+000	0.00000E+000	9	...........
	901	4510	3.89181E+000	6.90671E-004	0.00000E+000	2.68796E-003	2.07950E+000	0.00000E+000	0.00000E+000	9	...........
	902	4515	3.89217E+000	6.90672E-004	0.00000E+000	2.68821E-003	2.07950E+000	0.00000E+000	0.00000E+000	9	...........
	903	4520	3.89253E+000	6.90670E-004	0.00000E+000	2.68845E-003	2.07950E+000	0.00000E+000	0.00000E+000	9	...........
	904	4525	3.89289E+000	6.90670E-004	0.00000E+000	2.68870E-003	2.07950E+000	0.00000E+000	0.00000E+000	9	...........
	905	4530	3.89324E+000	6.90673E-004	0.00000E+000	2.68896E-003	2.07950E+000	0.00000E+000	0.00000E+000	9	...........
	906	4535	3.89359E+000	6.90672E-004	0.00000E+000	2.68920E-003	2.07950E+000	0.00000E+000	0.00000E+000	9	...........
	907	4540	3.89394E+000	6.90671E-004	0.00000E+000	2.68943E-003	2.07950E+000	0.00000E+000	0.00000E+000	9	...........
	908	4545	3.89430E+000	6.90671E-004	0.00000E+000	2.68968E-003	2.07950E+000	0.00000E+000	0.00000E+000	9	...........
	909	4550	3.89467E+000	6.90670E-004	0.00000E+000	2.68994E-003	2.07950E+000	0.00000E+000	0.00000E+000	9	...........
	910	4555	3.89503E+000	6.90670E-004	0.00000E+000	2.69018E-003	2.07950E+000	0.00000E+000	0.00000E+000	9	...........
	911	4560	3.89540E+000	6.90670E-004	0.00000E+000	2.69044E-003	2.07950E+000	0.00000E+000	0.00000E+000	9	...........
	912	4565	3.89576E+000	6.90671E-004	0.00000E+000	2.69069E-003	2.07950E+000	0.00000E+000	0.00000E+000	9	...........
	913	4570	3.89614E+000	6.90670E-004	0.00000E+000	2.69095E-003	2.07950E+000	0.00000E+000	0.00000E+000	9	...........
	914	4575	3.89654E+000	6.90671E-004	0.00000E+000	2.69123E-003	2.07950E+000	0.00000E+000	0.00000E+000	9	...........
	915	4580	3.89695E+000	6.90671E-004	0.00000E+000	2.69151E-003	2.07950E+000	0.00000E+000	0.00000E+000	9	...........
	916	4585	3.89733E+000	6.90671E-004	0.00000E+000	2.69178E-003	2.07950E+000	0.00000E+000	0.00000E+000	9	...........
	917	4590	3.89772E+000	6.90672E-004	0.00000E+000	2.69205E-003	2.07950E+000	0.00000E+000	0.00000E+000	9	...........
	918	4595	3.89813E+000	6.90672E-004	0.00000E+000	2.69233E-003	2.07950E+000	0.00000E+000	0.00000E+000	9	...........
	919	4600	3.89852E+000	6.90672E-004	0.00000E+000	2.69260E-003	2.07950E+000	0.00000E+000	0.00000E+000	9	...........
	920	4605	3.89892E+000	6.90672E-004	0.00000E+000	2.69287E-003	2.07950E+000	0.00000E+000	0.00000E+000	9	...........
	921	4610	3.89930E+000	6.90671E-004	0.00000E+000	2.69313E-003	2.07950E+000	0.00000E+000	0.00000E+000	9	...........
	922	4615	3.89969E+000	6.90671E-004	0.00000E+000	2.69340E-003	2.07950E+000	0.00000E+000	0.00000E+000	9	...........
	923	4620	3.90007E+000	6.90672E-004	0.00000E+000	2.69367E-003	2.07950E+000	0.00000E+000	0.00000E+000	9	...........
	924	4625	3.90046E+000	6.90671E-004	0.00000E+000	2.69393E-003	2.07950E+000	0.00000E+000	0.00000E+000	9	...........
	925	4630	3.90085E+000	6.90672E-004	0.00000E+000	2.69421E-003	2.07950E+000	0.00000E+000	0.00000E+000	9	...........
	926	4635	3.90123E+000	6.90671E-004	0.00000E+000	2.69447E-003	2.07950E+000	0.00000E+000	0.00000E+000	9	...........
	927	4640	3.90165E+000	6.90670E-004	0.00000E+000	2.69475E-003	2.07950E+000	0.00000E+000	0.00000E+000	9	...........
	928	4645	3.90204E+000	6.90670E-004	0.00000E+000	2.69502E-003	2.07950E+000	0.00000E+000	0.00000E+000	9	...........
	929	4650	3.90243E+000	6.90671E-004	0.00000E+000	2.69529E-003	2.07950E+000	0.00000E+000	0.00000E+000	9	...........
	930	4655	3.90282E+000	6.90672E-004	0.00000E+000	2.69557E-003	2.07950E+000	0.00000E+000	0.00000E+000	9	...........
	931	4660	3.90323E+000	6.90670E-004	0.00000E+000	2.69584E-003	2.07950E+000	0.00000E+000	0.00000E+000	9	...........
	932	4665	3.90363E+000	6.90669E-004	0.00000E+000	2.69612E-003	2.07950E+000	0.00000E+000	0.00000E+000	9	...........
	933	4670	3.90404E+000	6.90670E-004	0.00000E+000	2.69640E-003	2.07950E+000	0.00000E+000	0.00000E+000	9	...........
	934	4675	3.90444E+000	6.90670E-004	0.00000E+000	2.69668E-003	2.07950E+000	0.00000E+000	0.00000E+000	9	...........
	935	4680	3.90484E+000	6.90671E-004	0.00000E+000	2.69696E-003	2.07950E+000	0.00000E+000	0.00000E+000	9	...........
	936	4685	3.90524E+000	6.90669E-004	0.00000E+000	2.69723E-003	2.07950E+000	0.00000E+000	0.00000E+000	9	...........
	937	4690	3.90560E+000	6.90670E-004	0.00000E+000	2.69748E-003	2.07950E+000	0.00000E+000	0.00000E+000	9	...........
	938	4695	3.90602E+000	6.90669E-004	0.00000E+000	2.69777E-003	2.07950E+000	0.00000E+000	0.00000E+000	9	...........
	939	4700	3.90642E+000	6.90668E-004	0.00000E+000	2.69804E-003	2.07950E+000	0.00000E+000	0.00000E+000	9	...........
	940	4705	3.90682E+000	6.90669E-004	0.00000E+000	2.69832E-003	2.07950E+000	0.00000E+000	0.00000E+000	9	...........
	941	4710	3.90723E+000	6.90670E-004	0.00000E+000	2.69860E-003	2.07950E+000	0.00000E+000	0.00000E+000	9	...........
	942	4715	3.90763E+000	6.90671E-004	0.00000E+000	2.69889E-003	2.07950E+000	0.00000E+000	0.00000E+000	9	...........
	943	4720	3.90804E+000	6.90670E-004	0.00000E+000	2.69916E-003	2.07950E+000	0.00000E+000	0.00000E+000	9	...........
	944	4725	3.90845E+000	6.90670E-004	0.00000E+000	2.69945E-003	2.07950E+000	0.00000E+000	0.00000E+000	9	...........
	945	4730	3.90886E+000	6.90672E-004	0.00000E+000	2.69974E-003	2.07950E+000	0.00000E+000	0.00000E+000	9	...........
	946	4735	3.90928E+000	6.90672E-004	0.00000E+000	2.70003E-003	2.07950E+000	0.00000E+000	0.00000E+000	9	...........
	947	4740	3.90970E+000	6.90672E-004	0.00000E+000	2.70032E-003	2.07950E+000	0.00000E+000	0.00000E+000	9	...........
	948	4745	3.91014E+000	6.90672E-004	0.00000E+000	2.70062E-003	2.07950E+000	0.00000E+000	0.00000E+000	9	...........
	949	4750	3.91056E+000	6.90671E-004	0.00000E+000	2.70091E-003	2.07950E+000	0.00000E+000	0.00000E+000	9	...........
	950	4755	3.91100E+000	6.90672E-004	0.00000E+000	2.70122E-003	2.07950E+000	0.00000E+000	0.00000E+000	9	...........
	951	4760	3.91143E+000	6.90672E-004	0.00000E+000	2.70151E-003	2.07950E+000	0.00000E+000	0.00000E+000	9	...........
	952	4765	3.91186E+000	6.90672E-004	0.00000E+000	2.70181E-003	2.07950E+000	0.00000E+000	0.00000E+000	9	...........
	953	4770	3.91229E+000	6.90672E-004	0.00000E+000	2.70211E-003	2.07950E+000	0.00000E+000	0.00000E+000	9	...........
	954	4775	3.91272E+000	6.90671E-004	0.00000E+000	2.70240E-003	2.07950E+000	0.00000E+000	0.00000E+000	9	...........
	955	4780	3.91316E+000	6.90671E-004	0.00000E+000	2.70271E-003	2.07950E+000	0.00000E+000	0.00000E+000	9	...........
	956	4785	3.91361E+000	6.90672E-004	0.00000E+000	2.70302E-003	2.07950E+000	0.00000E+000	0.00000E+000	9	...........
	957	4790	3.91404E+000	6.90672E-004	0.00000E+000	2.70332E-003	2.07950E+000	0.00000E+000	0.00000E+000	9	...........
	958	4795	3.91446E+000	6.90673E-004	0.00000E+000	2.70361E-003	2.07950E+000	0.00000E+000	0.00000E+000	9	...........
	959	4800	3.91490E+000	6.90673E-004	0.00000E+000	2.70392E-003	2.07950E+000	0.00000E+000	0.00000E+000	9	...........
	960	4805	3.91533E+000	6.90673E-004	0.00000E+000	2.70421E-003	2.07950E+000	0.00000E+000	0.00000E+000	9	...........
	961	4810	3.91577E+000	6.90672E-004	0.00000E+000	2.70452E-003	2.07950E+000	0.00000E+000	0.00000E+000	9	...........
	962	4815	3.91621E+000	6.90671E-004	0.00000E+000	2.70481E-003	2.07950E+000	0.00000E+000	0.00000E+000	9	...........
	963	4820	3.91666E+000	6.90671E-004	0.00000E+000	2.70512E-003	2.07950E+000	0.00000E+000	0.00000E+000	9	...........
	964	4825	3.91710E+000	6.90671E-004	0.00000E+000	2.70543E-003	2.07950E+000	0.00000E+000	0.00000E+000	9	...........
	965	4830	3.91754E+000	6.90673E-004	0.00000E+000	2.70574E-003	2.07950E+000	0.00000E+000	0.00000E+000	9	...........
	966	4835	3.91799E+000	6.90672E-004	0.00000E+000	2.70605E-003	2.07950E+000	0.00000E+000	0.00000E+000	9	...........
	967	4840	3.91842E+000	6.90670E-004	0.00000E+000	2.70634E-003	2.07950E+000	0.00000E+000	0.00000E+000	9	...........
	968	4845	3.91886E+000	6.90673E-004	0.00000E+000	2.70665E-003	2.07950E+000	0.00000E+000	0.00000E+000	9	...........
	969	4850	3.91901E+000	6.90673E-004	0.00000E+000	2.70676E-003	2.07950E+000	0.00000E+000	0.00000E+000	9	...........
	970	4855	3.91945E+000	6.90673E-004	0.00000E+000	2.70706E-003	2.07950E+000	0.00000E+000	0.00000E+000	9	...........
	971	4860	3.91986E+000	6.90673E-004	0.00000E+000	2.70734E-003	2.07950E+000	0.00000E+000	0.00000E+000	9	...........
	972	4865	3.92029E+000	6.90672E-004	0.00000E+000	2.70763E-003	2.07950E+000	0.00000E+000	0.00000E+000	9	...........
	973	4870	3.92075E+000	6.90671E-004	0.00000E+000	2.70795E-003	2.07950E+000	0.00000E+000	0.00000E+000	9	...........
	974	4875	3.92110E+000	6.90669E-004	0.00000E+000	2.70818E-003	2.07950E+000	0.00000E+000	0.00000E+000	9	...........
	975	4880	3.92155E+000	6.90671E-004	0.00000E+000	2.70850E-003	2.07950E+000	0.00000E+000	0.00000E+000	9	...........
	976	4885	3.92204E+000	6.90672E-004	0.00000E+000	2.70884E-003	2.07950E+000	0.00000E+000	0.00000E+000	9	...........
	977	4890	3.92252E+000	6.90670E-004	0.00000E+000	2.70917E-003	2.07950E+000	0.00000E+000	0.00000E+000	9	...........
	978	4895	3.92299E+000	6.90673E-004	0.00000E+000	2.70950E-003	2.07950E+000	0.00000E+000	0.00000E+000	9	...........
	979	4900	3.92345E+000	6.90671E-004	0.00000E+000	2.70982E-003	2.07950E+000	0.00000E+000	0.00000E+000	9	...........
	980	4905	3.92393E+000	6.90672E-004	0.00000E+000	2.71015E-003	2.07950E+000	0.00000E+000	0.00000E+000	9	...........
	981	4910	3.92441E+000	6.90671E-004	0.00000E+000	2.71047E-003	2.07950E+000	0.00000E+000	0.00000E+000	9	...........
	982	4915	3.92487E+000	6.90671E-004	0.00000E+000	2.71079E-003	2.07950E+000	0.00000E+000	0.00000E+000	9	...........
	983	4920	3.92534E+000	6.90671E-004	0.00000E+000	2.71112E-003	2.07950E+000	0.00000E+000	0.00000E+000	9	...........
	984	4925	3.92581E+000	6.90671E-004	0.00000E+000	2.71144E-003	2.07950E+000	0.00000E+000	0.00000E+000	9	...........
	985	4930	3.92629E+000	6.90671E-004	0.00000E+000	2.71177E-003	2.07950E+000	0.00000E+000	0.00000E+000	9	...........
	986	4935	3.92674E+000	6.90671E-004	0.00000E+000	2.71209E-003	2.07950E+000	0.00000E+000	0.00000E+000	9	...........
	987	4940	3.92724E+000	6.90669E-004	0.00000E+000	2.71242E-003	2.07950E+000	0.00000E+000	0.00000E+000	9	...........
	988	4945	3.92771E+000	6.90670E-004	0.00000E+000	2.71275E-003	2.07950E+000	0.00000E+000	0.00000E+000	9	...........
	989	4950	3.92820E+000	6.90669E-004	0.00000E+000	2.71309E-003	2.07950E+000	0.00000E+000	0.00000E+000	9	...........
	990	4955	3.92873E+000	6.90670E-004	0.00000E+000	2.71345E-003	2.07950E+000	0.00000E+000	0.00000E+000	9	...........
	991	4960	3.92931E+000	6.90669E-004	0.00000E+000	2.71385E-003	2.07950E+000	0.00000E+000	0.00000E+000	9	...........
	992	4965	3.92985E+000	6.90670E-004	0.00000E+000	2.71423E-003	2.07950E+000	0.00000E+000	0.00000E+000	9	...........
	993	4970	3.93033E+000	6.90669E-004	0.00000E+000	2.71456E-003	2.07950E+000	0.00000E+000	0.00000E+000	9	...........
	994	4975	3.93082E+000	6.90669E-004	0.00000E+000	2.71490E-003	2.07950E+000	0.00000E+000	0.00000E+000	9	...........
	995	4980	3.93131E+000	6.90669E-004	0.00000E+000	2.71524E-003	2.07950E+000	0.00000E+000	0.00000E+000	9	...........
	996	4985	3.93160E+000	6.90671E-004	0.00000E+000	2.71544E-003	2.07950E+000	0.00000E+000	0.00000E+000	9	...........
	997	4990	3.93206E+000	6.90673E-004	0.00000E+000	2.71577E-003	2.07950E+000	0.00000E+000	0.00000E+000	9	...........
	998	4995	3.93256E+000	6.90670E-004	0.00000E+000	2.71610E-003	2.07950E+000	0.00000E+000	0.00000E+000	9	...........
	999	5000	3.93306E+000	6.90671E-004	0.00000E+000	2.71645E-003	2.07950E+000	0.00000E+000	0.00000E+000	9	...........
	1000	5005	3.93357E+000	6.90672E-004	0.00000E+000	2.71681E-003	2.07950E+000	0.00000E+000	0.00000E+000	9	...........
	1001	5010	3.93407E+000	6.90670E-004	0.00000E+000	2.71714E-003	2.07950E+000	0.00000E+000	0.00000E+000	9	...........
	1002	5015	3.93456E+000	6.90670E-004	0.00000E+000	2.71748E-003	2.07950E+000	0.00000E+000	0.00000E+000	9	...........
	1003	5020	3.93508E+000	6.90672E-004	0.00000E+000	2.71785E-003	2.07950E+000	0.00000E+000	0.00000E+000	9	...........
	1004	5025	3.93559E+000	6.90672E-004	0.00000E+000	2.71820E-003	2.07950E+000	0.00000E+000	0.00000E+000	9	...........
	1005	5030	3.93612E+000	6.90671E-004	0.00000E+000	2.71856E-003	2.07950E+000	0.00000E+000	0.00000E+000	9	...........
	1006	5035	3.93665E+000	6.90672E-004	0.00000E+000	2.71893E-003	2.07950E+000	0.00000E+000	0.00000E+000	9	...........
	1007	5040	3.93729E+000	6.90670E-004	0.00000E+000	2.71937E-003	2.07950E+000	0.00000E+000	0.00000E+000	9	...........
	1008	5045	3.93782E+000	6.90670E-004	0.00000E+000	2.71974E-003	2.07950E+000	0.00000E+000	0.00000E+000	9	...........
	1009	5050	3.93825E+000	6.90671E-004	0.00000E+000	2.72004E-003	2.07950E+000	0.00000E+000	0.00000E+000	9	...........
	1010	5055	3.93865E+000	6.90672E-004	0.00000E+000	2.72031E-003	2.07950E+000	0.00000E+000	0.00000E+000	9	...........
	1011	5060	3.93923E+000	6.90670E-004	0.00000E+000	2.72071E-003	2.07950E+000	0.00000E+000	0.00000E+000	9	...........
	1012	5065	3.93987E+000	6.90672E-004	0.00000E+000	2.72116E-003	2.07950E+000	0.00000E+000	0.00000E+000	9	...........
	1013	5070	3.94040E+000	6.90672E-004	0.00000E+000	2.72152E-003	2.07950E+000	0.00000E+000	0.00000E+000	9	...........
	1014	5075	3.94093E+000	6.90672E-004	0.00000E+000	2.72189E-003	2.07950E+000	0.00000E+000	0.00000E+000	9	...........
	1015	5080	3.94144E+000	6.90672E-004	0.00000E+000	2.72224E-003	2.07950E+000	0.00000E+000	0.00000E+000	9	...........
	1016	5085	3.94198E+000	6.90669E-004	0.00000E+000	2.72260E-003	2.07950E+000	0.00000E+000	0.00000E+000	9	...........
	1017	5090	3.94251E+000	6.90670E-004	0.00000E+000	2.72298E-003	2.07950E+000	0.00000E+000	0.00000E+000	9	...........
	1018	5095	3.94303E+000	6.90671E-004	0.00000E+000	2.72334E-003	2.07950E+000	0.00000E+000	0.00000E+000	9	...........
	1019	5100	3.94356E+000	6.90671E-004	0.00000E+000	2.72370E-003	2.07950E+000	0.00000E+000	0.00000E+000	9	...........
	1020	5105	3.94410E+000	6.90671E-004	0.00000E+000	2.72408E-003	2.07950E+000	0.00000E+000	0.00000E+000	9	...........
	1021	5110	3.94465E+000	6.90670E-004	0.00000E+000	2.72445E-003	2.07950E+000	0.00000E+000	0.00000E+000	9	...........
	1022	5115	3.94504E+000	6.90670E-004	0.00000E+000	2.72472E-003	2.07950E+000	0.00000E+000	0.00000E+000	9	...........
	1023	5120	3.94553E+000	6.90669E-004	0.00000E+000	2.72505E-003	2.07950E+000	0.00000E+000	0.00000E+000	9	...........
	1024	5125	3.94607E+000	6.90670E-004	0.00000E+000	2.72543E-003	2.07950E+000	0.00000E+000	0.00000E+000	9	...........
	1025	5130	3.94660E+000	6.90672E-004	0.00000E+000	2.72581E-003	2.07950E+000	0.00000E+000	0.00000E+000	9	...........
	1026	5135	3.94724E+000	6.90672E-004	0.00000E+000	2.72625E-003	2.07950E+000	0.00000E+000	0.00000E+000	9	...........
	1027	5140	3.94782E+000	6.90673E-004	0.00000E+000	2.72666E-003	2.07950E+000	0.00000E+000	0.00000E+000	9	...........
	1028	5145	3.94846E+000	6.90673E-004	0.00000E+000	2.72709E-003	2.07950E+000	0.00000E+000	0.00000E+000	9	...........
	1029	5150	3.94903E+000	6.90672E-004	0.00000E+000	2.72749E-003	2.07950E+000	0.00000E+000	0.00000E+000	9	...........
	1030	5155	3.94958E+000	6.90672E-004	0.00000E+000	2.72786E-003	2.07950E+000	0.00000E+000	0.00000E+000	9	...........
	1031	5160	3.94996E+000	6.90672E-004	0.00000E+000	2.72813E-003	2.07950E+000	0.00000E+000	0.00000E+000	9	...........
	1032	5165	3.95006E+000	6.90671E-004	0.00000E+000	2.72819E-003	2.07950E+000	0.00000E+000	0.00000E+000	9	...........
	1033	5170	3.95053E+000	6.90671E-004	0.00000E+000	2.72852E-003	2.07950E+000	0.00000E+000	0.00000E+000	9	...........
	1034	5175	3.95112E+000	6.90672E-004	0.00000E+000	2.72893E-003	2.07950E+000	0.00000E+000	0.00000E+000	9	...........
	1035	5180	3.95174E+000	6.90671E-004	0.00000E+000	2.72935E-003	2.07950E+000	0.00000E+000	0.00000E+000	9	...........
	1036	5185	3.95237E+000	6.90671E-004	0.00000E+000	2.72979E-003	2.07950E+000	0.00000E+000	0.00000E+000	9	...........
	1037	5190	3.95295E+000	6.90671E-004	0.00000E+000	2.73019E-003	2.07950E+000	0.00000E+000	0.00000E+000	9	...........
	1038	5195	3.95347E+000	6.90671E-004	0.00000E+000	2.73055E-003	2.07950E+000	0.00000E+000	0.00000E+000	9	...........
	1039	5200	3.95391E+000	6.90671E-004	0.00000E+000	2.73085E-003	2.07950E+000	0.00000E+000	0.00000E+000	9	...........
	1040	5205	3.95461E+000	6.90671E-004	0.00000E+000	2.73133E-003	2.07950E+000	0.00000E+000	0.00000E+000	9	...........
	1041	5210	3.95500E+000	6.90670E-004	0.00000E+000	2.73160E-003	2.07950E+000	0.00000E+000	0.00000E+000	9	...........
	1042	5215	3.95548E+000	6.90671E-004	0.00000E+000	2.73194E-003	2.07950E+000	0.00000E+000	0.00000E+000	9	...........
	1043	5220	3.95603E+000	6.90670E-004	0.00000E+000	2.73231E-003	2.07950E+000	0.00000E+000	0.00000E+000	9	...........
	1044	5225	3.95660E+000	6.90672E-004	0.00000E+000	2.73271E-003	2.07950E+000	0.00000E+000	0.00000E+000	9	...........
	1045	5230	3.95716E+000	6.90671E-004	0.00000E+000	2.73310E-003	2.07950E+000	0.00000E+000	0.00000E+000	9	...........
	1046	5235	3.95773E+000	6.90670E-004	0.00000E+000	2.73348E-003	2.07950E+000	0.00000E+000	0.00000E+000	9	...........
	1047	5240	3.95831E+000	6.90669E-004	0.00000E+000	2.73388E-003	2.07950E+000	0.00000E+000	0.00000E+000	9	...........
	1048	5245	3.95888E+000	6.90670E-004	0.00000E+000	2.73428E-003	2.07950E+000	0.00000E+000	0.00000E+000	9	...........
	1049	5250	3.95945E+000	6.90669E-004	0.00000E+000	2.73467E-003	2.07950E+000	0.00000E+000	0.00000E+000	9	...........
	1050	5255	3.96002E+000	6.90670E-004	0.00000E+000	2.73507E-003	2.07950E+000	0.00000E+000	0.00000E+000	9	...........
	1051	5260	3.96060E+000	6.90671E-004	0.00000E+000	2.73547E-003	2.07950E+000	0.00000E+000	0.00000E+000	9	...........
	1052	5265	3.96119E+000	6.90670E-004	0.00000E+000	2.73587E-003	2.07950E+000	0.00000E+000	0.00000E+000	9	...........
	1053	5270	3.96177E+000	6.90670E-004	0.00000E+000	2.73628E-003	2.07950E+000	0.00000E+000	0.00000E+000	9	...........
	1054	5275	3.96235E+000	6.90672E-004	0.00000E+000	2.73668E-003	2.07950E+000	0.00000E+000	0.00000E+000	9	...........
	1055	5280	3.96291E+000	6.90671E-004	0.00000E+000	2.73707E-003	2.07950E+000	0.00000E+000	0.00000E+000	9	...........
	1056	5285	3.96347E+000	6.90671E-004	0.00000E+000	2.73746E-003	2.07950E+000	0.00000E+000	0.00000E+000	9	...........
	1057	5290	3.96405E+000	6.90671E-004	0.00000E+000	2.73786E-003	2.07950E+000	0.00000E+000	0.00000E+000	9	...........
	1058	5295	3.96464E+000	6.90672E-004	0.00000E+000	2.73827E-003	2.07950E+000	0.00000E+000	0.00000E+000	9	...........
	1059	5300	3.96523E+000	6.90671E-004	0.00000E+000	2.73867E-003	2.07950E+000	0.00000E+000	0.00000E+000	9	...........
	1060	5305	3.96583E+000	6.90671E-004	0.00000E+000	2.73908E-003	2.07950E+000	0.00000E+000	0.00000E+000	9	...........
	1061	5310	3.96642E+000	6.90671E-004	0.00000E+000	2.73949E-003	2.07950E+000	0.00000E+000	0.00000E+000	9	...........
	1062	5315	3.96702E+000	6.90672E-004	0.00000E+000	2.73991E-003	2.07950E+000	0.00000E+000	0.00000E+000	9	...........
	1063	5320	3.96760E+000	6.90671E-004	0.00000E+000	2.74030E-003	2.07950E+000	0.00000E+000	0.00000E+000	9	...........
	1064	5325	3.96819E+000	6.90672E-004	0.00000E+000	2.74072E-003	2.07950E+000	0.00000E+000	0.00000E+000	9	...........
	1065	5330	3.96878E+000	6.90672E-004	0.00000E+000	2.74113E-003	2.07950E+000	0.00000E+000	0.00000E+000	9	...........
	1066	5335	3.96938E+000	6.90671E-004	0.00000E+000	2.74154E-003	2.07950E+000	0.00000E+000	0.00000E+000	9	...........
	1067	5340	3.96998E+000	6.90672E-004	0.00000E+000	2.74195E-003	2.07950E+000	0.00000E+000	0.00000E+000	9	...........
	1068	5345	3.97058E+000	6.90672E-004	0.00000E+000	2.74237E-003	2.07950E+000	0.00000E+000	0.00000E+000	9	...........
	1069	5350	3.97120E+000	6.90673E-004	0.00000E+000	2.74280E-003	2.07950E+000	0.00000E+000	0.00000E+000	9	...........
	1070	5355	3.97182E+000	6.90672E-004	0.00000E+000	2.74322E-003	2.07950E+000	0.00000E+000	0.00000E+000	9	...........
	1071	5360	3.97241E+000	6.90672E-004	0.00000E+000	2.74363E-003	2.07950E+000	0.00000E+000	0.00000E+000	9	...........
	1072	5365	3.97302E+000	6.90672E-004	0.00000E+000	2.74405E-003	2.07950E+000	0.00000E+000	0.00000E+000	9	...........
	1073	5370	3.97363E+000	6.90672E-004	0.00000E+000	2.74447E-003	2.07950E+000	0.00000E+000	0.00000E+000	9	...........
	1074	5375	3.97428E+000	6.90671E-004	0.00000E+000	2.74492E-003	2.07950E+000	0.00000E+000	0.00000E+000	9	...........
	1075	5380	3.97489E+000	6.90671E-004	0.00000E+000	2.74534E-003	2.07950E+000	0.00000E+000	0.00000E+000	9	...........
	1076	5385	3.97549E+000	6.90673E-004	0.00000E+000	2.74577E-003	2.07950E+000	0.00000E+000	0.00000E+000	9	...........
	1077	5390	3.97609E+000	6.90674E-004	0.00000E+000	2.74618E-003	2.07950E+000	0.00000E+000	0.00000E+000	9	...........
	1078	5395	3.97671E+000	6.90671E-004	0.00000E+000	2.74660E-003	2.07950E+000	0.00000E+000	0.00000E+000	9	...........
	1079	5400	3.97732E+000	6.90672E-004	0.00000E+000	2.74703E-003	2.07950E+000	0.00000E+000	0.00000E+000	9	...........
	1080	5405	3.97794E+000	6.90673E-004	0.00000E+000	2.74745E-003	2.07950E+000	0.00000E+000	0.00000E+000	9	...........
	1081	5410	3.97856E+000	6.90672E-004	0.00000E+000	2.74788E-003	2.07950E+000	0.00000E+000	0.00000E+000	9	...........
	1082	5415	3.97917E+000	6.90673E-004	0.00000E+000	2.74830E-003	2.07950E+000	0.00000E+000	0.00000E+000	9	...........
	1083	5420	3.97979E+000	6.90673E-004	0.00000E+000	2.74873E-003	2.07950E+000	0.00000E+000	0.00000E+000	9	...........
	1084	5425	3.98042E+000	6.90672E-004	0.00000E+000	2.74916E-003	2.07950E+000	0.00000E+000	0.00000E+000	9	...........
	1085	5430	3.98104E+000	6.90673E-004	0.00000E+000	2.74959E-003	2.07950E+000	0.00000E+000	0.00000E+000	9	...........
	1086	5435	3.98165E+000	6.90673E-004	0.00000E+000	2.75002E-003	2.07950E+000	0.00000E+000	0.00000E+000	9	...........
	1087	5440	3.98228E+000	6.90672E-004	0.00000E+000	2.75045E-003	2.07950E+000	0.00000E+000	0.00000E+000	9	...........
	1088	5445	3.98290E+000	6.90672E-004	0.00000E+000	2.75088E-003	2.07950E+000	0.00000E+000	0.00000E+000	9	...........
	1089	5450	3.98354E+000	6.90671E-004	0.00000E+000	2.75132E-003	2.07950E+000	0.00000E+000	0.00000E+000	9	...........
	1090	5455	3.98418E+000	6.90672E-004	0.00000E+000	2.75176E-003	2.07950E+000	0.00000E+000	0.00000E+000	9	...........
	1091	5460	3.98482E+000	6.90672E-004	0.00000E+000	2.75220E-003	2.07950E+000	0.00000E+000	0.00000E+000	9	...........
	1092	5465	3.98545E+000	6.90671E-004	0.00000E+000	2.75264E-003	2.07950E+000	0.00000E+000	0.00000E+000	9	...........
	1093	5470	3.98609E+000	6.90671E-004	0.00000E+000	2.75307E-003	2.07950E+000	0.00000E+000	0.00000E+000	9	...........
	1094	5475	3.98674E+000	6.90671E-004	0.00000E+000	2.75353E-003	2.07950E+000	0.00000E+000	0.00000E+000	9	...........
	1095	5480	3.98740E+000	6.90672E-004	0.00000E+000	2.75398E-003	2.07950E+000	0.00000E+000	0.00000E+000	9	...........
	1096	5485	3.98803E+000	6.90672E-004	0.00000E+000	2.75442E-003	2.07950E+000	0.00000E+000	0.00000E+000	9	...........
	1097	5490	3.98866E+000	6.90672E-004	0.00000E+000	2.75486E-003	2.07950E+000	0.00000E+000	0.00000E+000	9	...........
	1098	5495	3.98930E+000	6.90671E-004	0.00000E+000	2.75530E-003	2.07950E+000	0.00000E+000	0.00000E+000	9	...........
	1099	5500	3.98994E+000	6.90672E-004	0.00000E+000	2.75574E-003	2.07950E+000	0.00000E+000	0.00000E+000	9	...........
	1100	5505	3.99055E+000	6.90671E-004	0.00000E+000	2.75616E-003	2.07950E+000	0.00000E+000	0.00000E+000	9	...........
	1101	5510	3.99118E+000	6.90671E-004	0.00000E+000	2.75659E-003	2.07950E+000	0.00000E+000	0.00000E+000	9	...........
	1102	5515	3.99184E+000	6.90672E-004	0.00000E+000	2.75705E-003	2.07950E+000	0.00000E+000	0.00000E+000	9	...........
	1103	5520	3.99233E+000	6.90671E-004	0.00000E+000	2.75738E-003	2.07950E+000	0.00000E+000	0.00000E+000	9	...........
	1104	5525	3.99311E+000	6.90673E-004	0.00000E+000	2.75794E-003	2.07950E+000	0.00000E+000	0.00000E+000	9	...........
	1105	5530	3.99378E+000	6.90672E-004	0.00000E+000	2.75840E-003	2.07950E+000	0.00000E+000	0.00000E+000	9	...........
	1106	5535	3.99444E+000	6.90672E-004	0.00000E+000	2.75884E-003	2.07950E+000	0.00000E+000	0.00000E+000	9	...........
	1107	5540	3.99508E+000	6.90672E-004	0.00000E+000	2.75929E-003	2.07950E+000	0.00000E+000	0.00000E+000	9	...........
	1108	5545	3.99575E+000	6.90673E-004	0.00000E+000	2.75976E-003	2.07950E+000	0.00000E+000	0.00000E+000	9	...........
	1109	5550	3.99640E+000	6.90672E-004	0.00000E+000	2.76020E-003	2.07950E+000	0.00000E+000	0.00000E+000	9	...........
	1110	5555	3.99705E+000	6.90673E-004	0.00000E+000	2.76066E-003	2.07950E+000	0.00000E+000	0.00000E+000	9	...........
	1111	5560	3.99772E+000	6.90672E-004	0.00000E+000	2.76111E-003	2.07950E+000	0.00000E+000	0.00000E+000	9	...........
	1112	5565	3.99838E+000	6.90673E-004	0.00000E+000	2.76157E-003	2.07950E+000	0.00000E+000	0.00000E+000	9	...........
	1113	5570	3.99905E+000	6.90674E-004	0.00000E+000	2.76204E-003	2.07950E+000	0.00000E+000	0.00000E+000	9	...........
	1114	5575	3.99975E+000	6.90674E-004	0.00000E+000	2.76252E-003	2.07950E+000	0.00000E+000	0.00000E+000	9	...........
	1115	5580	4.00045E+000	6.90673E-004	0.00000E+000	2.76300E-003	2.07950E+000	0.00000E+000	0.00000E+000	9	...........
	1116	5585	4.00113E+000	6.90674E-004	0.00000E+000	2.76348E-003	2.07950E+000	0.00000E+000	0.00000E+000	9	...........
	1117	5590	4.00183E+000	6.90673E-004	0.00000E+000	2.76395E-003	2.07950E+000	0.00000E+000	0.00000E+000	9	...........
	1118	5595	4.00250E+000	6.90672E-004	0.00000E+000	2.76441E-003	2.07950E+000	0.00000E+000	0.00000E+000	9	...........
	1119	5600	4.00315E+000	6.90673E-004	0.00000E+000	2.76487E-003	2.07950E+000	0.00000E+000	0.00000E+000	9	...........
	1120	5605	4.00382E+000	6.90674E-004	0.00000E+000	2.76534E-003	2.07950E+000	0.00000E+000	0.00000E+000	9	...........
	1121	5610	4.00449E+000	6.90673E-004	0.00000E+000	2.76579E-003	2.07950E+000	0.00000E+000	0.00000E+000	9	...........
	1122	5615	4.00515E+000	6.90673E-004	0.00000E+000	2.76625E-003	2.07950E+000	0.00000E+000	0.00000E+000	9	...........
	1123	5620	4.00584E+000	6.90673E-004	0.00000E+000	2.76672E-003	2.07950E+000	0.00000E+000	0.00000E+000	9	...........
	1124	5625	4.00652E+000	6.90673E-004	0.00000E+000	2.76719E-003	2.07950E+000	0.00000E+000	0.00000E+000	9	...........
	1125	5630	4.00719E+000	6.90674E-004	0.00000E+000	2.76766E-003	2.07950E+000	0.00000E+000	0.00000E+000	9	...........
	1126	5635	4.00785E+000	6.90674E-004	0.00000E+000	2.76812E-003	2.07950E+000	0.00000E+000	0.00000E+000	9	...........
	1127	5640	4.00853E+000	6.90674E-004	0.00000E+000	2.76859E-003	2.07950E+000	0.00000E+000	0.00000E+000	9	...........
	1128	5645	4.00922E+000	6.90673E-004	0.00000E+000	2.76906E-003	2.07950E+000	0.00000E+000	0.00000E+000	9	...........
	1129	5650	4.00990E+000	6.90673E-004	0.00000E+000	2.76953E-003	2.07950E+000	0.00000E+000	0.00000E+000	9	...........
	1130	5655	4.01057E+000	6.90673E-004	0.00000E+000	2.76999E-003	2.07950E+000	0.00000E+000	0.00000E+000	9	...........
	1131	5660	4.01125E+000	6.90673E-004	0.00000E+000	2.77047E-003	2.07950E+000	0.00000E+000	0.00000E+000	9	...........
	1132	5665	4.01195E+000	6.90673E-004	0.00000E+000	2.77094E-003	2.07950E+000	0.00000E+000	0.00000E+000	9	...........
	1133	5670	4.01265E+000	6.90673E-004	0.00000E+000	2.77143E-003	2.07950E+000	0.00000E+000	0.00000E+000	9	...........
	1134	5675	4.01334E+000	6.90674E-004	0.00000E+000	2.77191E-003	2.07950E+000	0.00000E+000	0.00000E+000	9	...........
	1135	5680	4.01402E+000	6.90672E-004	0.00000E+000	2.77237E-003	2.07950E+000	0.00000E+000	0.00000E+000	9	...........
	1136	5685	4.01470E+000	6.90672E-004	0.00000E+000	2.77284E-003	2.07950E+000	0.00000E+000	0.00000E+000	9	...........
	1137	5690	4.01538E+000	6.90672E-004	0.00000E+000	2.77331E-003	2.07950E+000	0.00000E+000	0.00000E+000	9	...........
	1138	5695	4.01604E+000	6.90673E-004	0.00000E+000	2.77377E-003	2.07950E+000	0.00000E+000	0.00000E+000	9	...........
	1139	5700	4.01674E+000	6.90674E-004	0.00000E+000	2.77426E-003	2.07950E+000	0.00000E+000	0.00000E+000	9	...........
	1140	5705	4.01742E+000	6.90673E-004	0.00000E+000	2.77472E-003	2.07950E+000	0.00000E+000	0.00000E+000	9	...........
	1141	5710	4.01811E+000	6.90673E-004	0.00000E+000	2.77520E-003	2.07950E+000	0.00000E+000	0.00000E+000	9	...........
	1142	5715	4.01882E+000	6.90674E-004	0.00000E+000	2.77569E-003	2.07950E+000	0.00000E+000	0.00000E+000	9	...........
	1143	5720	4.01951E+000	6.90672E-004	0.00000E+000	2.77617E-003	2.07950E+000	0.00000E+000	0.00000E+000	9	...........
	1144	5725	4.02022E+000	6.90673E-004	0.00000E+000	2.77666E-003	2.07950E+000	0.00000E+000	0.00000E+000	9	...........
	1145	5730	4.02091E+000	6.90672E-004	0.00000E+000	2.77713E-003	2.07950E+000	0.00000E+000	0.00000E+000	9	...........
	1146	5735	4.02161E+000	6.90674E-004	0.00000E+000	2.77762E-003	2.07950E+000	0.00000E+000	0.00000E+000	9	...........
	1147	5740	4.02232E+000	6.90674E-004	0.00000E+000	2.77812E-003	2.07950E+000	0.00000E+000	0.00000E+000	9	...........
	1148	5745	4.02302E+000	6.90674E-004	0.00000E+000	2.77860E-003	2.07950E+000	0.00000E+000	0.00000E+000	9	...........
	1149	5750	4.02372E+000	6.90672E-004	0.00000E+000	2.77907E-003	2.07950E+000	0.00000E+000	0.00000E+000	9	...........
	1150	5755	4.02442E+000	6.90673E-004	0.00000E+000	2.77956E-003	2.07950E+000	0.00000E+000	0.00000E+000	9	...........
	1151	5760	4.02514E+000	6.90673E-004	0.00000E+000	2.78005E-003	2.07950E+000	0.00000E+000	0.00000E+000	9	...........
	1152	5765	4.02586E+000	6.90673E-004	0.00000E+000	2.78056E-003	2.07950E+000	0.00000E+000	0.00000E+000	9	...........
	1153	5770	4.02655E+000	6.90674E-004	0.00000E+000	2.78103E-003	2.07950E+000	0.00000E+000	0.00000E+000	9	...........
	1154	5775	4.02726E+000	6.90674E-004	0.00000E+000	2.78152E-003	2.07950E+000	0.00000E+000	0.00000E+000	9	...........
	1155	5780	4.02798E+000	6.90673E-004	0.00000E+000	2.78202E-003	2.07950E+000	0.00000E+000	0.00000E+000	9	...........
	1156	5785	4.02870E+000	6.90674E-004	0.00000E+000	2.78252E-003	2.07950E+000	0.00000E+000	0.00000E+000	9	...........
	1157	5790	4.02942E+000	6.90674E-004	0.00000E+000	2.78302E-003	2.07950E+000	0.00000E+000	0.00000E+000	9	...........
	1158	5795	4.03012E+000	6.90674E-004	0.00000E+000	2.78350E-003	2.07950E+000	0.00000E+000	0.00000E+000	9	...........
	1159	5800	4.03084E+000	6.90673E-004	0.00000E+000	2.78399E-003	2.07950E+000	0.00000E+000	0.00000E+000	9	...........
	1160	5805	4.03155E+000	6.90673E-004	0.00000E+000	2.78448E-003	2.07950E+000	0.00000E+000	0.00000E+000	9	...........
	1161	5810	4.03227E+000	6.90674E-004	0.00000E+000	2.78499E-003	2.07950E+000	0.00000E+000	0.00000E+000	9	...........
	1162	5815	4.03296E+000	6.90672E-004	0.00000E+000	2.78545E-003	2.07950E+000	0.00000E+000	0.00000E+000	9	...........
	1163	5820	4.03365E+000	6.90673E-004	0.00000E+000	2.78593E-003	2.07950E+000	0.00000E+000	0.00000E+000	9	...........
	1164	5825	4.03438E+000	6.90673E-004	0.00000E+000	2.78643E-003	2.07950E+000	0.00000E+000	0.00000E+000	9	...........
	1165	5830	4.03511E+000	6.90673E-004	0.00000E+000	2.78694E-003	2.07950E+000	0.00000E+000	0.00000E+000	9	...........
	1166	5835	4.03583E+000	6.90674E-004	0.00000E+000	2.78744E-003	2.07950E+000	0.00000E+000	0.00000E+000	9	...........
	1167	5840	4.03655E+000	6.90673E-004	0.00000E+000	2.78794E-003	2.07950E+000	0.00000E+000	0.00000E+000	9	...........
	1168	5845	4.03726E+000	6.90672E-004	0.00000E+000	2.78843E-003	2.07950E+000	0.00000E+000	0.00000E+000	9	...........
	1169	5850	4.03800E+000	6.90673E-004	0.00000E+000	2.78894E-003	2.07950E+000	0.00000E+000	0.00000E+000	9	...........
	1170	5855	4.03870E+000	6.90674E-004	0.00000E+000	2.78943E-003	2.07950E+000	0.00000E+000	0.00000E+000	9	...........
	1171	5860	4.03939E+000	6.90674E-004	0.00000E+000	2.78990E-003	2.07950E+000	0.00000E+000	0.00000E+000	9	...........
	1172	5865	4.04011E+000	6.90673E-004	0.00000E+000	2.79040E-003	2.07950E+000	0.00000E+000	0.00000E+000	9	...........
	1173	5870	4.04084E+000	6.90672E-004	0.00000E+000	2.79090E-003	2.07950E+000	0.00000E+000	0.00000E+000	9	...........
	1174	5875	4.04158E+000	6.90674E-004	0.00000E+000	2.79141E-003	2.07950E+000	0.00000E+000	0.00000E+000	9	...........
	1175	5880	4.04231E+000	6.90673E-004	0.00000E+000	2.79191E-003	2.07950E+000	0.00000E+000	0.00000E+000	9	...........
	1176	5885	4.04303E+000	6.90673E-004	0.00000E+000	2.79241E-003	2.07950E+000	0.00000E+000	0.00000E+000	9	...........
	1177	5890	4.04376E+000	6.90673E-004	0.00000E+000	2.79292E-003	2.07950E+000	0.00000E+000	0.00000E+000	9	...........
	1178	5895	4.04449E+000	6.90673E-004	0.00000E+000	2.79342E-003	2.07950E+000	0.00000E+000	0.00000E+000	9	...........
	1179	5900	4.04523E+000	6.90672E-004	0.00000E+000	2.79393E-003	2.07950E+000	0.00000E+000	0.00000E+000	9	...........
	1180	5905	4.04592E+000	6.90672E-004	0.00000E+000	2.79441E-003	2.07950E+000	0.00000E+000	0.00000E+000	9	...........
	1181	5910	4.04667E+000	6.90672E-004	0.00000E+000	2.79492E-003	2.07950E+000	0.00000E+000	0.00000E+000	9	...........
	1182	5915	4.04751E+000	6.90672E-004	0.00000E+000	2.79550E-003	2.07950E+000	0.00000E+000	0.00000E+000	9	...........
	1183	5920	4.04826E+000	6.90673E-004	0.00000E+000	2.79603E-003	2.07950E+000	0.00000E+000	0.00000E+000	9	...........
	1184	5925	4.04900E+000	6.90673E-004	0.00000E+000	2.79653E-003	2.07950E+000	0.00000E+000	0.00000E+000	9	...........
	1185	5930	4.04974E+000	6.90674E-004	0.00000E+000	2.79705E-003	2.07950E+000	0.00000E+000	0.00000E+000	9	...........
	1186	5935	4.05054E+000	6.90674E-004	0.00000E+000	2.79761E-003	2.07950E+000	0.00000E+000	0.00000E+000	9	...........
	1187	5940	4.05131E+000	6.90675E-004	0.00000E+000	2.79814E-003	2.07950E+000	0.00000E+000	0.00000E+000	9	...........
	1188	5945	4.05206E+000	6.90675E-004	0.00000E+000	2.79865E-003	2.07950E+000	0.00000E+000	0.00000E+000	9	...........
	1189	5950	4.05278E+000	6.90674E-004	0.00000E+000	2.79915E-003	2.07950E+000	0.00000E+000	0.00000E+000	9	...........
	1190	5955	4.05352E+000	6.90674E-004	0.00000E+000	2.79966E-003	2.07950E+000	0.00000E+000	0.00000E+000	9	...........
	1191	5960	4.05427E+000	6.90675E-004	0.00000E+000	2.80018E-003	2.07950E+000	0.00000E+000	0.00000E+000	9	...........
	1192	5965	4.05502E+000	6.90674E-004	0.00000E+000	2.80069E-003	2.07950E+000	0.00000E+000	0.00000E+000	9	...........
	1193	5970	4.05576E+000	6.90676E-004	0.00000E+000	2.80122E-003	2.07950E+000	0.00000E+000	0.00000E+000	9	...........
	1194	5975	4.05649E+000	6.90674E-004	0.00000E+000	2.80171E-003	2.07950E+000	0.00000E+000	0.00000E+000	9	...........
	1195	5980	4.05723E+000	6.90674E-004	0.00000E+000	2.80222E-003	2.07950E+000	0.00000E+000	0.00000E+000	9	...........
	1196	5985	4.05798E+000	6.90675E-004	0.00000E+000	2.80274E-003	2.07950E+000	0.00000E+000	0.00000E+000	9	...........
	1197	5990	4.05869E+000	6.90673E-004	0.00000E+000	2.80323E-003	2.07950E+000	0.00000E+000	0.00000E+000	9	...........
	1198	5995	4.05944E+000	6.90674E-004	0.00000E+000	2.80375E-003	2.07950E+000	0.00000E+000	0.00000E+000	9	...........
	1199	6000	4.06017E+000	6.90675E-004	0.00000E+000	2.80426E-003	2.07950E+000	0.00000E+000	0.00000E+000	9	...........
	1200	6005	4.06090E+000	6.90675E-004	0.00000E+000	2.80476E-003	2.07950E+000	0.00000E+000	0.00000E+000	9	...........
	1201	6010	4.06165E+000	6.90673E-004	0.00000E+000	2.80527E-003	2.07950E+000	0.00000E+000	0.00000E+000	9	...........
	1202	6015	4.06239E+000	6.90674E-004	0.00000E+000	2.80579E-003	2.07950E+000	0.00000E+000	0.00000E+000	9	...........
	1203	6020	4.06315E+000	6.90673E-004	0.00000E+000	2.80631E-003	2.07950E+000	0.00000E+000	0.00000E+000	9	...........
	1204	6025	4.06391E+000	6.90674E-004	0.00000E+000	2.80684E-003	2.07950E+000	0.00000E+000	0.00000E+000	9	...........
	1205	6030	4.06465E+000	6.90675E-004	0.00000E+000	2.80736E-003	2.07950E+000	0.00000E+000	0.00000E+000	9	...........
	1206	6035	4.06539E+000	6.90674E-004	0.00000E+000	2.80786E-003	2.07950E+000	0.00000E+000	0.00000E+000	9	...........
	1207	6040	4.06614E+000	6.90675E-004	0.00000E+000	2.80838E-003	2.07950E+000	0.00000E+000	0.00000E+000	9	...........
	1208	6045	4.06690E+000	6.90674E-004	0.00000E+000	2.80890E-003	2.07950E+000	0.00000E+000	0.00000E+000	9	...........
	1209	6050	4.06764E+000	6.90674E-004	0.00000E+000	2.80942E-003	2.07950E+000	0.00000E+000	0.00000E+000	9	...........
	1210	6055	4.06839E+000	6.90675E-004	0.00000E+000	2.80994E-003	2.07950E+000	0.00000E+000	0.00000E+000	9	...........
	1211	6060	4.06914E+000	6.90674E-004	0.00000E+000	2.81045E-003	2.07950E+000	0.00000E+000	0.00000E+000	9	...........
	1212	6065	4.06990E+000	6.90674E-004	0.00000E+000	2.81097E-003	2.07950E+000	0.00000E+000	0.00000E+000	9	...........
	1213	6070	4.07064E+000	6.90673E-004	0.00000E+000	2.81148E-003	2.07950E+000	0.00000E+000	0.00000E+000	9	...........
	1214	6075	4.07140E+000	6.90675E-004	0.00000E+000	2.81201E-003	2.07950E+000	0.00000E+000	0.00000E+000	9	...........
	1215	6080	4.07214E+000	6.90673E-004	0.00000E+000	2.81252E-003	2.07950E+000	0.00000E+000	0.00000E+000	9	...........
	1216	6085	4.07289E+000	6.90674E-004	0.00000E+000	2.81304E-003	2.07950E+000	0.00000E+000	0.00000E+000	9	...........
	1217	6090	4.07362E+000	6.90672E-004	0.00000E+000	2.81353E-003	2.07950E+000	0.00000E+000	0.00000E+000	9	...........
	1218	6095	4.07437E+000	6.90674E-004	0.00000E+000	2.81406E-003	2.07950E+000	0.00000E+000	0.00000E+000	9	...........
	1219	6100	4.07512E+000	6.90675E-004	0.00000E+000	2.81459E-003	2.07950E+000	0.00000E+000	0.00000E+000	9	...........
	1220	6105	4.07591E+000	6.90675E-004	0.00000E+000	2.81513E-003	2.07950E+000	0.00000E+000	0.00000E+000	9	...........
	1221	6110	4.07667E+000	6.90674E-004	0.00000E+000	2.81565E-003	2.07950E+000	0.00000E+000	0.00000E+000	9	...........
	1222	6115	4.07741E+000	6.90674E-004	0.00000E+000	2.81616E-003	2.07950E+000	0.00000E+000	0.00000E+000	9	...........
	1223	6120	4.07817E+000	6.90674E-004	0.00000E+000	2.81669E-003	2.07950E+000	0.00000E+000	0.00000E+000	9	...........
	1224	6125	4.07894E+000	6.90674E-004	0.00000E+000	2.81722E-003	2.07950E+000	0.00000E+000	0.00000E+000	9	...........
	1225	6130	4.07970E+000	6.90674E-004	0.00000E+000	2.81774E-003	2.07950E+000	0.00000E+000	0.00000E+000	9	...........
	1226	6135	4.08045E+000	6.90673E-004	0.00000E+000	2.81826E-003	2.07950E+000	0.00000E+000	0.00000E+000	9	...........
	1227	6140	4.08121E+000	6.90674E-004	0.00000E+000	2.81878E-003	2.07950E+000	0.00000E+000	0.00000E+000	9	...........
	1228	6145	4.08195E+000	6.90672E-004	0.00000E+000	2.81929E-003	2.07950E+000	0.00000E+000	0.00000E+000	9	...........
	1229	6150	4.08272E+000	6.90673E-004	0.00000E+000	2.81982E-003	2.07950E+000	0.00000E+000	0.00000E+000	9	...........
	1230	6155	4.08349E+000	6.90674E-004	0.00000E+000	2.82036E-003	2.07950E+000	0.00000E+000	0.00000E+000	9	...........
	1231	6160	4.08425E+000	6.90675E-004	0.00000E+000	2.82089E-003	2.07950E+000	0.00000E+000	0.00000E+000	9	...........
	1232	6165	4.08501E+000	6.90674E-004	0.00000E+000	2.82141E-003	2.07950E+000	0.00000E+000	0.00000E+000	9	...........
	1233	6170	4.08577E+000	6.90674E-004	0.00000E+000	2.82193E-003	2.07950E+000	0.00000E+000	0.00000E+000	9	...........
	1234	6175	4.08653E+000	6.90675E-004	0.00000E+000	2.82246E-003	2.07950E+000	0.00000E+000	0.00000E+000	9	...........
	1235	6180	4.08727E+000	6.90675E-004	0.00000E+000	2.82298E-003	2.07950E+000	0.00000E+000	0.00000E+000	9	...........
	1236	6185	4.08799E+000	6.90673E-004	0.00000E+000	2.82347E-003	2.07950E+000	0.00000E+000	0.00000E+000	9	...........
	1237	6190	4.08877E+000	6.90674E-004	0.00000E+000	2.82401E-003	2.07950E+000	0.00000E+000	0.00000E+000	9	...........
	1238	6195	4.08954E+000	6.90675E-004	0.00000E+000	2.82454E-003	2.07950E+000	0.00000E+000	0.00000E+000	9	...........
	1239	6200	4.09030E+000	6.90674E-004	0.00000E+000	2.82506E-003	2.07950E+000	0.00000E+000	0.00000E+000	9	...........
	1240	6205	4.09100E+000	6.90675E-004	0.00000E+000	2.82555E-003	2.07950E+000	0.00000E+000	0.00000E+000	9	...........
	1241	6210	4.09177E+000	6.90676E-004	0.00000E+000	2.82609E-003	2.07950E+000	0.00000E+000	0.00000E+000	9	...........
	1242	6215	4.09255E+000	6.90673E-004	0.00000E+000	2.82661E-003	2.07950E+000	0.00000E+000	0.00000E+000	9	...........
	1243	6220	4.09332E+000	6.90673E-004	0.00000E+000	2.82714E-003	2.07950E+000	0.00000E+000	0.00000E+000	9	...........
	1244	6225	4.09408E+000	6.90674E-004	0.00000E+000	2.82768E-003	2.07950E+000	0.00000E+000	0.00000E+000	9	...........
	1245	6230	4.09484E+000	6.90674E-004	0.00000E+000	2.82820E-003	2.07950E+000	0.00000E+000	0.00000E+000	9	...........
	1246	6235	4.09560E+000	6.90674E-004	0.00000E+000	2.82873E-003	2.07950E+000	0.00000E+000	0.00000E+000	9	...........
	1247	6240	4.09637E+000	6.90675E-004	0.00000E+000	2.82926E-003	2.07950E+000	0.00000E+000	0.00000E+000	9	...........
	1248	6245	4.09713E+000	6.90674E-004	0.00000E+000	2.82978E-003	2.07950E+000	0.00000E+000	0.00000E+000	9	...........
	1249	6250	4.09789E+000	6.90674E-004	0.00000E+000	2.83031E-003	2.07950E+000	0.00000E+000	0.00000E+000	9	...........
	1250	6255	4.09866E+000	6.90672E-004	0.00000E+000	2.83083E-003	2.07950E+000	0.00000E+000	0.00000E+000	9	...........
	1251	6260	4.09943E+000	6.90672E-004	0.00000E+000	2.83136E-003	2.07950E+000	0.00000E+000	0.00000E+000	9	...........
	1252	6265	4.10019E+000	6.90672E-004	0.00000E+000	2.83188E-003	2.07950E+000	0.00000E+000	0.00000E+000	9	...........
	1253	6270	4.10092E+000	6.90674E-004	0.00000E+000	2.83240E-003	2.07950E+000	0.00000E+000	0.00000E+000	9	...........
	1254	6275	4.10171E+000	6.90674E-004	0.00000E+000	2.83294E-003	2.07950E+000	0.00000E+000	0.00000E+000	9	...........
	1255	6280	4.10257E+000	6.90674E-004	0.00000E+000	2.83354E-003	2.07950E+000	0.00000E+000	0.00000E+000	9	...........
	1256	6285	4.10334E+000	6.90674E-004	0.00000E+000	2.83407E-003	2.07950E+000	0.00000E+000	0.00000E+000	9	...........
	1257	6290	4.10410E+000	6.90674E-004	0.00000E+000	2.83460E-003	2.07950E+000	0.00000E+000	0.00000E+000	9	...........
	1258	6295	4.10478E+000	6.90675E-004	0.00000E+000	2.83507E-003	2.07950E+000	0.00000E+000	0.00000E+000	9	...........
	1259	6300	4.10556E+000	6.90674E-004	0.00000E+000	2.83560E-003	2.07950E+000	0.00000E+000	0.00000E+000	9	...........
	1260	6305	4.10633E+000	6.90674E-004	0.00000E+000	2.83614E-003	2.07950E+000	0.00000E+000	0.00000E+000	9	...........
	1261	6310	4.10710E+000	6.90674E-004	0.00000E+000	2.83667E-003	2.07950E+000	0.00000E+000	0.00000E+000	9	...........
	1262	6315	4.10786E+000	6.90675E-004	0.00000E+000	2.83720E-003	2.07950E+000	0.00000E+000	0.00000E+000	9	...........
	1263	6320	4.10863E+000	6.90675E-004	0.00000E+000	2.83773E-003	2.07950E+000	0.00000E+000	0.00000E+000	9	...........
	1264	6325	4.10941E+000	6.90675E-004	0.00000E+000	2.83826E-003	2.07950E+000	0.00000E+000	0.00000E+000	9	...........
	1265	6330	4.11018E+000	6.90674E-004	0.00000E+000	2.83880E-003	2.07950E+000	0.00000E+000	0.00000E+000	9	...........
	1266	6335	4.11094E+000	6.90674E-004	0.00000E+000	2.83932E-003	2.07950E+000	0.00000E+000	0.00000E+000	9	...........
	1267	6340	4.11171E+000	6.90675E-004	0.00000E+000	2.83986E-003	2.07950E+000	0.00000E+000	0.00000E+000	9	...........
	1268	6345	4.11252E+000	6.90674E-004	0.00000E+000	2.84041E-003	2.07950E+000	0.00000E+000	0.00000E+000	9	...........
	1269	6350	4.11329E+000	6.90673E-004	0.00000E+000	2.84094E-003	2.07950E+000	0.00000E+000	0.00000E+000	9	...........
	1270	6355	4.11405E+000	6.90674E-004	0.00000E+000	2.84147E-003	2.07950E+000	0.00000E+000	0.00000E+000	9	...........
	1271	6360	4.11485E+000	6.90675E-004	0.00000E+000	2.84202E-003	2.07950E+000	0.00000E+000	0.00000E+000	9	...........
	1272	6365	4.11565E+000	6.90675E-004	0.00000E+000	2.84258E-003	2.07950E+000	0.00000E+000	0.00000E+000	9	...........
	1273	6370	4.11642E+000	6.90673E-004	0.00000E+000	2.84310E-003	2.07950E+000	0.00000E+000	0.00000E+000	9	...........
	1274	6375	4.11713E+000	6.90673E-004	0.00000E+000	2.84359E-003	2.07950E+000	0.00000E+000	0.00000E+000	9	...........
	1275	6380	4.11791E+000	6.90673E-004	0.00000E+000	2.84413E-003	2.07950E+000	0.00000E+000	0.00000E+000	9	...........
	1276	6385	4.11870E+000	6.90672E-004	0.00000E+000	2.84467E-003	2.07950E+000	0.00000E+000	0.00000E+000	9	...........
	1277	6390	4.11949E+000	6.90673E-004	0.00000E+000	2.84522E-003	2.07950E+000	0.00000E+000	0.00000E+000	9	...........
	1278	6395	4.12025E+000	6.90672E-004	0.00000E+000	2.84575E-003	2.07950E+000	0.00000E+000	0.00000E+000	9	...........
	1279	6400	4.12103E+000	6.90673E-004	0.00000E+000	2.84628E-003	2.07950E+000	0.00000E+000	0.00000E+000	9	...........
	1280	6405	4.12180E+000	6.90671E-004	0.00000E+000	2.84681E-003	2.07950E+000	0.00000E+000	0.00000E+000	9	...........
	1281	6410	4.12258E+000	6.90673E-004	0.00000E+000	2.84736E-003	2.07950E+000	0.00000E+000	0.00000E+000	9	...........
	1282	6415	4.12336E+000	6.90673E-004	0.00000E+000	2.84789E-003	2.07950E+000	0.00000E+000	0.00000E+000	9	...........
	1283	6420	4.12413E+000	6.90673E-004	0.00000E+000	2.84842E-003	2.07950E+000	0.00000E+000	0.00000E+000	9	...........
	1284	6425	4.12493E+000	6.90672E-004	0.00000E+000	2.84898E-003	2.07950E+000	0.00000E+000	0.00000E+000	9	...........
	1285	6430	4.12570E+000	6.90672E-004	0.00000E+000	2.84951E-003	2.07950E+000	0.00000E+000	0.00000E+000	9	...........
	1286	6435	4.12650E+000	6.90674E-004	0.00000E+000	2.85006E-003	2.07950E+000	0.00000E+000	0.00000E+000	9	...........
	1287	6440	4.12727E+000	6.90674E-004	0.00000E+000	2.85060E-003	2.07950E+000	0.00000E+000	0.00000E+000	9	...........
	1288	6445	4.12807E+000	6.90675E-004	0.00000E+000	2.85115E-003	2.07950E+000	0.00000E+000	0.00000E+000	9	...........
	1289	6450	4.12886E+000	6.90675E-004	0.00000E+000	2.85170E-003	2.07950E+000	0.00000E+000	0.00000E+000	9	...........
	1290	6455	4.12965E+000	6.90676E-004	0.00000E+000	2.85225E-003	2.07950E+000	0.00000E+000	0.00000E+000	9	...........
	1291	6460	4.13043E+000	6.90675E-004	0.00000E+000	2.85278E-003	2.07950E+000	0.00000E+000	0.00000E+000	9	...........
	1292	6465	4.13119E+000	6.90674E-004	0.00000E+000	2.85331E-003	2.07950E+000	0.00000E+000	0.00000E+000	9	...........
	1293	6470	4.13195E+000	6.90673E-004	0.00000E+000	2.85383E-003	2.07950E+000	0.00000E+000	0.00000E+000	9	...........
	1294	6475	4.13274E+000	6.90673E-004	0.00000E+000	2.85437E-003	2.07950E+000	0.00000E+000	0.00000E+000	9	...........
	1295	6480	4.13353E+000	6.90673E-004	0.00000E+000	2.85492E-003	2.07950E+000	0.00000E+000	0.00000E+000	9	...........
	1296	6485	4.13432E+000	6.90674E-004	0.00000E+000	2.85547E-003	2.07950E+000	0.00000E+000	0.00000E+000	9	...........
	1297	6490	4.13511E+000	6.90674E-004	0.00000E+000	2.85601E-003	2.07950E+000	0.00000E+000	0.00000E+000	9	...........
	1298	6495	4.13591E+000	6.90673E-004	0.00000E+000	2.85656E-003	2.07950E+000	0.00000E+000	0.00000E+000	9	...........
	1299	6500	4.13669E+000	6.90673E-004	0.00000E+000	2.85710E-003	2.07950E+000	0.00000E+000	0.00000E+000	9	...........
	1300	6505	4.13749E+000	6.90674E-004	0.00000E+000	2.85766E-003	2.07950E+000	0.00000E+000	0.00000E+000	9	...........
	1301	6510	4.13828E+000	6.90673E-004	0.00000E+000	2.85820E-003	2.07950E+000	0.00000E+000	0.00000E+000	9	...........
	1302	6515	4.13907E+000	6.90674E-004	0.00000E+000	2.85875E-003	2.07950E+000	0.00000E+000	0.00000E+000	9	...........
	1303	6520	4.13986E+000	6.90674E-004	0.00000E+000	2.85930E-003	2.07950E+000	0.00000E+000	0.00000E+000	9	...........
	1304	6525	4.14067E+000	6.90672E-004	0.00000E+000	2.85984E-003	2.07950E+000	0.00000E+000	0.00000E+000	9	...........
	1305	6530	4.14147E+000	6.90673E-004	0.00000E+000	2.86041E-003	2.07950E+000	0.00000E+000	0.00000E+000	9	...........
	1306	6535	4.14227E+000	6.90674E-004	0.00000E+000	2.86095E-003	2.07950E+000	0.00000E+000	0.00000E+000	9	...........
	1307	6540	4.14305E+000	6.90674E-004	0.00000E+000	2.86150E-003	2.07950E+000	0.00000E+000	0.00000E+000	9	...........
	1308	6545	4.14384E+000	6.90674E-004	0.00000E+000	2.86204E-003	2.07950E+000	0.00000E+000	0.00000E+000	9	...........
	1309	6550	4.14462E+000	6.90675E-004	0.00000E+000	2.86258E-003	2.07950E+000	0.00000E+000	0.00000E+000	9	...........
	1310	6555	4.14542E+000	6.90674E-004	0.00000E+000	2.86313E-003	2.07950E+000	0.00000E+000	0.00000E+000	9	...........
	1311	6560	4.14620E+000	6.90675E-004	0.00000E+000	2.86368E-003	2.07950E+000	0.00000E+000	0.00000E+000	9	...........
	1312	6565	4.14702E+000	6.90675E-004	0.00000E+000	2.86425E-003	2.07950E+000	0.00000E+000	0.00000E+000	9	...........
	1313	6570	4.14783E+000	6.90675E-004	0.00000E+000	2.86480E-003	2.07950E+000	0.00000E+000	0.00000E+000	9	...........
	1314	6575	4.14862E+000	6.90675E-004	0.00000E+000	2.86535E-003	2.07950E+000	0.00000E+000	0.00000E+000	9	...........
	1315	6580	4.14941E+000	6.90675E-004	0.00000E+000	2.86590E-003	2.07950E+000	0.00000E+000	0.00000E+000	9	...........
	1316	6585	4.15022E+000	6.90675E-004	0.00000E+000	2.86646E-003	2.07950E+000	0.00000E+000	0.00000E+000	9	...........
	1317	6590	4.15102E+000	6.90673E-004	0.00000E+000	2.86700E-003	2.07950E+000	0.00000E+000	0.00000E+000	9	...........
	1318	6595	4.15182E+000	6.90675E-004	0.00000E+000	2.86756E-003	2.07950E+000	0.00000E+000	0.00000E+000	9	...........
	1319	6600	4.15263E+000	6.90674E-004	0.00000E+000	2.86811E-003	2.07950E+000	0.00000E+000	0.00000E+000	9	...........
	1320	6605	4.15351E+000	6.90673E-004	0.00000E+000	2.86872E-003	2.07950E+000	0.00000E+000	0.00000E+000	9	...........
	1321	6610	4.15435E+000	6.90673E-004	0.00000E+000	2.86930E-003	2.07950E+000	0.00000E+000	0.00000E+000	9	...........
	1322	6615	4.15518E+000	6.90674E-004	0.00000E+000	2.86988E-003	2.07950E+000	0.00000E+000	0.00000E+000	9	...........
	1323	6620	4.15599E+000	6.90675E-004	0.00000E+000	2.87043E-003	2.07950E+000	0.00000E+000	0.00000E+000	9	...........
	1324	6625	4.15680E+000	6.90675E-004	0.00000E+000	2.87100E-003	2.07950E+000	0.00000E+000	0.00000E+000	9	...........
	1325	6630	4.15762E+000	6.90674E-004	0.00000E+000	2.87156E-003	2.07950E+000	0.00000E+000	0.00000E+000	9	...........
	1326	6635	4.15841E+000	6.90674E-004	0.00000E+000	2.87211E-003	2.07950E+000	0.00000E+000	0.00000E+000	9	...........
	1327	6640	4.15920E+000	6.90674E-004	0.00000E+000	2.87265E-003	2.07950E+000	0.00000E+000	0.00000E+000	9	...........
	1328	6645	4.16003E+000	6.90674E-004	0.00000E+000	2.87322E-003	2.07950E+000	0.00000E+000	0.00000E+000	9	...........
	1329	6650	4.16083E+000	6.90674E-004	0.00000E+000	2.87378E-003	2.07950E+000	0.00000E+000	0.00000E+000	9	...........
	1330	6655	4.16164E+000	6.90674E-004	0.00000E+000	2.87434E-003	2.07950E+000	0.00000E+000	0.00000E+000	9	...........
	1331	6660	4.16245E+000	6.90673E-004	0.00000E+000	2.87489E-003	2.07950E+000	0.00000E+000	0.00000E+000	9	...........
	1332	6665	4.16328E+000	6.90673E-004	0.00000E+000	2.87546E-003	2.07950E+000	0.00000E+000	0.00000E+000	9	...........
	1333	6670	4.16409E+000	6.90675E-004	0.00000E+000	2.87604E-003	2.07950E+000	0.00000E+000	0.00000E+000	9	...........
	1334	6675	4.16489E+000	6.90674E-004	0.00000E+000	2.87658E-003	2.07950E+000	0.00000E+000	0.00000E+000	9	...........
	1335	6680	4.16569E+000	6.90675E-004	0.00000E+000	2.87714E-003	2.07950E+000	0.00000E+000	0.00000E+000	9	...........
	1336	6685	4.16651E+000	6.90676E-004	0.00000E+000	2.87771E-003	2.07950E+000	0.00000E+000	0.00000E+000	9	...........
	1337	6690	4.16733E+000	6.90675E-004	0.00000E+000	2.87827E-003	2.07950E+000	0.00000E+000	0.00000E+000	9	...........
	1338	6695	4.16814E+000	6.90675E-004	0.00000E+000	2.87883E-003	2.07950E+000	0.00000E+000	0.00000E+000	9	...........
	1339	6700	4.16897E+000	6.90675E-004	0.00000E+000	2.87941E-003	2.07950E+000	0.00000E+000	0.00000E+000	9	...........
	1340	6705	4.16980E+000	6.90676E-004	0.00000E+000	2.87998E-003	2.07950E+000	0.00000E+000	0.00000E+000	9	...........
	1341	6710	4.17064E+000	6.90675E-004	0.00000E+000	2.88056E-003	2.07950E+000	0.00000E+000	0.00000E+000	9	...........
	1342	6715	4.17143E+000	6.90674E-004	0.00000E+000	2.88110E-003	2.07950E+000	0.00000E+000	0.00000E+000	9	...........
	1343	6720	4.17226E+000	6.90674E-004	0.00000E+000	2.88167E-003	2.07950E+000	0.00000E+000	0.00000E+000	9	...........
	1344	6725	4.17310E+000	6.90674E-004	0.00000E+000	2.88225E-003	2.07950E+000	0.00000E+000	0.00000E+000	9	...........
	1345	6730	4.17394E+000	6.90674E-004	0.00000E+000	2.88283E-003	2.07950E+000	0.00000E+000	0.00000E+000	9	...........
	1346	6735	4.17476E+000	6.90674E-004	0.00000E+000	2.88339E-003	2.07950E+000	0.00000E+000	0.00000E+000	9	...........
	1347	6740	4.17559E+000	6.90674E-004	0.00000E+000	2.88397E-003	2.07950E+000	0.00000E+000	0.00000E+000	9	...........
	1348	6745	4.17643E+000	6.90674E-004	0.00000E+000	2.88455E-003	2.07950E+000	0.00000E+000	0.00000E+000	9	...........
	1349	6750	4.17727E+000	6.90674E-004	0.00000E+000	2.88513E-003	2.07950E+000	0.00000E+000	0.00000E+000	9	...........
	1350	6755	4.17810E+000	6.90675E-004	0.00000E+000	2.88571E-003	2.07950E+000	0.00000E+000	0.00000E+000	9	...........
	1351	6760	4.17897E+000	6.90675E-004	0.00000E+000	2.88631E-003	2.07950E+000	0.00000E+000	0.00000E+000	9	...........
	1352	6765	4.17981E+000	6.90675E-004	0.00000E+000	2.88689E-003	2.07950E+000	0.00000E+000	0.00000E+000	9	...........
	1353	6770	4.18064E+000	6.90676E-004	0.00000E+000	2.88747E-003	2.07950E+000	0.00000E+000	0.00000E+000	9	...........
	1354	6775	4.18145E+000	6.90675E-004	0.00000E+000	2.88802E-003	2.07950E+000	0.00000E+000	0.00000E+000	9	...........
	1355	6780	4.18229E+000	6.90675E-004	0.00000E+000	2.88860E-003	2.07950E+000	0.00000E+000	0.00000E+000	9	...........
	1356	6785	4.18315E+000	6.90676E-004	0.00000E+000	2.88920E-003	2.07950E+000	0.00000E+000	0.00000E+000	9	...........
	1357	6790	4.18399E+000	6.90675E-004	0.00000E+000	2.88978E-003	2.07950E+000	0.00000E+000	0.00000E+000	9	...........
	1358	6795	4.18484E+000	6.90675E-004	0.00000E+000	2.89036E-003	2.07950E+000	0.00000E+000	0.00000E+000	9	...........
	1359	6800	4.18571E+000	6.90676E-004	0.00000E+000	2.89097E-003	2.07950E+000	0.00000E+000	0.00000E+000	9	...........
	1360	6805	4.18656E+000	6.90676E-004	0.00000E+000	2.89156E-003	2.07950E+000	0.00000E+000	0.00000E+000	9	...........
	1361	6810	4.18740E+000	6.90676E-004	0.00000E+000	2.89214E-003	2.07950E+000	0.00000E+000	0.00000E+000	9	...........
	1362	6815	4.18824E+000	6.90675E-004	0.00000E+000	2.89271E-003	2.07950E+000	0.00000E+000	0.00000E+000	9	...........
	1363	6820	4.18906E+000	6.90674E-004	0.00000E+000	2.89327E-003	2.07950E+000	0.00000E+000	0.00000E+000	9	...........
	1364	6825	4.18991E+000	6.90674E-004	0.00000E+000	2.89386E-003	2.07950E+000	0.00000E+000	0.00000E+000	9	...........
	1365	6830	4.19077E+000	6.90674E-004	0.00000E+000	2.89445E-003	2.07950E+000	0.00000E+000	0.00000E+000	9	...........
	1366	6835	4.19164E+000	6.90676E-004	0.00000E+000	2.89506E-003	2.07950E+000	0.00000E+000	0.00000E+000	9	...........
	1367	6840	4.19251E+000	6.90675E-004	0.00000E+000	2.89566E-003	2.07950E+000	0.00000E+000	0.00000E+000	9	...........
	1368	6845	4.19337E+000	6.90675E-004	0.00000E+000	2.89626E-003	2.07950E+000	0.00000E+000	0.00000E+000	9	...........
	1369	6850	4.19423E+000	6.90675E-004	0.00000E+000	2.89685E-003	2.07950E+000	0.00000E+000	0.00000E+000	9	...........
	1370	6855	4.19512E+000	6.90675E-004	0.00000E+000	2.89747E-003	2.07950E+000	0.00000E+000	0.00000E+000	9	...........
	1371	6860	4.19600E+000	6.90675E-004	0.00000E+000	2.89807E-003	2.07950E+000	0.00000E+000	0.00000E+000	9	...........
	1372	6865	4.19686E+000	6.90676E-004	0.00000E+000	2.89867E-003	2.07950E+000	0.00000E+000	0.00000E+000	9	...........
	1373	6870	4.19773E+000	6.90676E-004	0.00000E+000	2.89927E-003	2.07950E+000	0.00000E+000	0.00000E+000	9	...........
	1374	6875	4.19859E+000	6.90675E-004	0.00000E+000	2.89986E-003	2.07950E+000	0.00000E+000	0.00000E+000	9	...........
	1375	6880	4.19948E+000	6.90676E-004	0.00000E+000	2.90048E-003	2.07950E+000	0.00000E+000	0.00000E+000	9	...........
	1376	6885	4.20034E+000	6.90673E-004	0.00000E+000	2.90106E-003	2.07950E+000	0.00000E+000	0.00000E+000	9	...........
	1377	6890	4.20120E+000	6.90675E-004	0.00000E+000	2.90167E-003	2.07950E+000	0.00000E+000	0.00000E+000	9	...........
	1378	6895	4.20206E+000	6.90675E-004	0.00000E+000	2.90226E-003	2.07950E+000	0.00000E+000	0.00000E+000	9	...........
	1379	6900	4.20296E+000	6.90673E-004	0.00000E+000	2.90287E-003	2.07950E+000	0.00000E+000	0.00000E+000	9	...........
	1380	6905	4.20386E+000	6.90675E-004	0.00000E+000	2.90350E-003	2.07950E+000	0.00000E+000	0.00000E+000	9	...........
	1381	6910	4.20480E+000	6.90675E-004	0.00000E+000	2.90416E-003	2.07950E+000	0.00000E+000	0.00000E+000	9	...........
	1382	6915	4.20573E+000	6.90676E-004	0.00000E+000	2.90480E-003	2.07950E+000	0.00000E+000	0.00000E+000	9	...........
	1383	6920	4.20660E+000	6.90674E-004	0.00000E+000	2.90539E-003	2.07950E+000	0.00000E+000	0.00000E+000	9	...........
	1384	6925	4.20749E+000	6.90675E-004	0.00000E+000	2.90601E-003	2.07950E+000	0.00000E+000	0.00000E+000	9	...........
	1385	6930	4.20838E+000	6.90676E-004	0.00000E+000	2.90663E-003	2.07950E+000	0.00000E+000	0.00000E+000	9	...........
	1386	6935	4.20927E+000	6.90676E-004	0.00000E+000	2.90724E-003	2.07950E+000	0.00000E+000	0.00000E+000	9	...........
	1387	6940	4.21014E+000	6.90675E-004	0.00000E+000	2.90784E-003	2.07950E+000	0.00000E+000	0.00000E+000	9	...........
	1388	6945	4.21104E+000	6.90675E-004	0.00000E+000	2.90846E-003	2.07950E+000	0.00000E+000	0.00000E+000	9	...........
	1389	6950	4.21193E+000	6.90674E-004	0.00000E+000	2.90907E-003	2.07950E+000	0.00000E+000	0.00000E+000	9	...........
	1390	6955	4.21282E+000	6.90676E-004	0.00000E+000	2.90969E-003	2.07950E+000	0.00000E+000	0.00000E+000	9	...........
	1391	6960	4.21370E+000	6.90677E-004	0.00000E+000	2.91030E-003	2.07950E+000	0.00000E+000	0.00000E+000	9	...........
	1392	6965	4.21455E+000	6.90676E-004	0.00000E+000	2.91089E-003	2.07950E+000	0.00000E+000	0.00000E+000	9	...........
	1393	6970	4.21544E+000	6.90676E-004	0.00000E+000	2.91151E-003	2.07950E+000	0.00000E+000	0.00000E+000	9	...........
	1394	6975	4.21634E+000	6.90678E-004	0.00000E+000	2.91213E-003	2.07950E+000	0.00000E+000	0.00000E+000	9	...........
	1395	6980	4.21724E+000	6.90678E-004	0.00000E+000	2.91276E-003	2.07950E+000	0.00000E+000	0.00000E+000	9	...........
	1396	6985	4.21814E+000	6.90680E-004	0.00000E+000	2.91339E-003	2.07950E+000	0.00000E+000	0.00000E+000	9	...........
	1397	6990	4.21903E+000	6.90680E-004	0.00000E+000	2.91400E-003	2.07950E+000	0.00000E+000	0.00000E+000	9	...........
	1398	6995	4.21993E+000	6.90678E-004	0.00000E+000	2.91461E-003	2.07950E+000	0.00000E+000	0.00000E+000	9	...........
	1399	7000	4.22083E+000	6.90678E-004	0.00000E+000	2.91523E-003	2.07950E+000	0.00000E+000	0.00000E+000	9	...........
	1400	7005	4.22175E+000	6.90677E-004	0.00000E+000	2.91587E-003	2.07950E+000	0.00000E+000	0.00000E+000	9	...........
	1401	7010	4.22264E+000	6.90677E-004	0.00000E+000	2.91648E-003	2.07950E+000	0.00000E+000	0.00000E+000	9	...........
	1402	7015	4.22355E+000	6.90677E-004	0.00000E+000	2.91711E-003	2.07950E+000	0.00000E+000	0.00000E+000	9	...........
	1403	7020	4.22446E+000	6.90679E-004	0.00000E+000	2.91775E-003	2.07950E+000	0.00000E+000	0.00000E+000	9	...........
	1404	7025	4.22536E+000	6.90678E-004	0.00000E+000	2.91836E-003	2.07950E+000	0.00000E+000	0.00000E+000	9	...........
	1405	7030	4.22627E+000	6.90678E-004	0.00000E+000	2.91899E-003	2.07950E+000	0.00000E+000	0.00000E+000	9	...........
	1406	7035	4.22714E+000	6.90678E-004	0.00000E+000	2.91960E-003	2.07950E+000	0.00000E+000	0.00000E+000	9	...........
	1407	7040	4.22804E+000	6.90678E-004	0.00000E+000	2.92022E-003	2.07950E+000	0.00000E+000	0.00000E+000	9	...........
	1408	7045	4.22895E+000	6.90679E-004	0.00000E+000	2.92084E-003	2.07950E+000	0.00000E+000	0.00000E+000	9	...........
	1409	7050	4.22987E+000	6.90678E-004	0.00000E+000	2.92148E-003	2.07950E+000	0.00000E+000	0.00000E+000	9	...........
	1410	7055	4.23079E+000	6.90678E-004	0.00000E+000	2.92212E-003	2.07950E+000	0.00000E+000	0.00000E+000	9	...........
	1411	7060	4.23171E+000	6.90679E-004	0.00000E+000	2.92275E-003	2.07950E+000	0.00000E+000	0.00000E+000	9	...........
	1412	7065	4.23261E+000	6.90680E-004	0.00000E+000	2.92338E-003	2.07950E+000	0.00000E+000	0.00000E+000	9	...........
	1413	7070	4.23354E+000	6.90679E-004	0.00000E+000	2.92402E-003	2.07950E+000	0.00000E+000	0.00000E+000	9	...........
	1414	7075	4.23446E+000	6.90678E-004	0.00000E+000	2.92465E-003	2.07950E+000	0.00000E+000	0.00000E+000	9	...........
	1415	7080	4.23539E+000	6.90680E-004	0.00000E+000	2.92530E-003	2.07950E+000	0.00000E+000	0.00000E+000	9	...........
	1416	7085	4.23631E+000	6.90678E-004	0.00000E+000	2.92593E-003	2.07950E+000	0.00000E+000	0.00000E+000	9	...........
	1417	7090	4.23723E+000	6.90678E-004	0.00000E+000	2.92656E-003	2.07950E+000	0.00000E+000	0.00000E+000	9	...........
	1418	7095	4.23813E+000	6.90676E-004	0.00000E+000	2.92718E-003	2.07950E+000	0.00000E+000	0.00000E+000	9	...........
	1419	7100	4.23907E+000	6.90677E-004	0.00000E+000	2.92783E-003	2.07950E+000	0.00000E+000	0.00000E+000	9	...........
	1420	7105	4.24000E+000	6.90677E-004	0.00000E+000	2.92847E-003	2.07950E+000	0.00000E+000	0.00000E+000	9	...........
	1421	7110	4.24094E+000	6.90679E-004	0.00000E+000	2.92913E-003	2.07950E+000	0.00000E+000	0.00000E+000	9	...........
	1422	7115	4.24188E+000	6.90677E-004	0.00000E+000	2.92977E-003	2.07950E+000	0.00000E+000	0.00000E+000	9	...........
	1423	7120	4.24283E+000	6.90678E-004	0.00000E+000	2.93043E-003	2.07950E+000	0.00000E+000	0.00000E+000	9	...........
	1424	7125	4.24377E+000	6.90678E-004	0.00000E+000	2.93108E-003	2.07950E+000	0.00000E+000	0.00000E+000	9	...........
	1425	7130	4.24470E+000	6.90677E-004	0.00000E+000	2.93171E-003	2.07950E+000	0.00000E+000	0.00000E+000	9	...........
	1426	7135	4.24564E+000	6.90676E-004	0.00000E+000	2.93236E-003	2.07950E+000	0.00000E+000	0.00000E+000	9	...........
	1427	7140	4.24658E+000	6.90676E-004	0.00000E+000	2.93301E-003	2.07950E+000	0.00000E+000	0.00000E+000	9	...........
	1428	7145	4.24751E+000	6.90676E-004	0.00000E+000	2.93365E-003	2.07950E+000	0.00000E+000	0.00000E+000	9	...........
	1429	7150	4.24846E+000	6.90676E-004	0.00000E+000	2.93431E-003	2.07950E+000	0.00000E+000	0.00000E+000	9	...........
	1430	7155	4.24940E+000	6.90676E-004	0.00000E+000	2.93496E-003	2.07950E+000	0.00000E+000	0.00000E+000	9	...........
	1431	7160	4.25035E+000	6.90677E-004	0.00000E+000	2.93562E-003	2.07950E+000	0.00000E+000	0.00000E+000	9	...........
	1432	7165	4.25129E+000	6.90677E-004	0.00000E+000	2.93627E-003	2.07950E+000	0.00000E+000	0.00000E+000	9	...........
	1433	7170	4.25224E+000	6.90676E-004	0.00000E+000	2.93692E-003	2.07950E+000	0.00000E+000	0.00000E+000	9	...........
	1434	7175	4.25319E+000	6.90676E-004	0.00000E+000	2.93757E-003	2.07950E+000	0.00000E+000	0.00000E+000	9	...........
	1435	7180	4.25411E+000	6.90676E-004	0.00000E+000	2.93821E-003	2.07950E+000	0.00000E+000	0.00000E+000	9	...........
	1436	7185	4.25505E+000	6.90676E-004	0.00000E+000	2.93886E-003	2.07950E+000	0.00000E+000	0.00000E+000	9	...........
	1437	7190	4.25606E+000	6.90677E-004	0.00000E+000	2.93956E-003	2.07950E+000	0.00000E+000	0.00000E+000	9	...........
	1438	7195	4.25700E+000	6.90677E-004	0.00000E+000	2.94021E-003	2.07950E+000	0.00000E+000	0.00000E+000	9	...........
	1439	7200	4.25796E+000	6.90677E-004	0.00000E+000	2.94088E-003	2.07950E+000	0.00000E+000	0.00000E+000	9	...........
	1440	7205	4.25891E+000	6.90677E-004	0.00000E+000	2.94153E-003	2.07950E+000	0.00000E+000	0.00000E+000	9	...........
	1441	7210	4.25987E+000	6.90677E-004	0.00000E+000	2.94219E-003	2.07950E+000	0.00000E+000	0.00000E+000	9	...........
	1442	7215	4.26082E+000	6.90676E-004	0.00000E+000	2.94284E-003	2.07950E+000	0.00000E+000	0.00000E+000	9	...........
	1443	7220	4.26177E+000	6.90676E-004	0.00000E+000	2.94350E-003	2.07950E+000	0.00000E+000	0.00000E+000	9	...........
	1444	7225	4.26274E+000	6.90678E-004	0.00000E+000	2.94418E-003	2.07950E+000	0.00000E+000	0.00000E+000	9	...........
	1445	7230	4.26368E+000	6.90677E-004	0.00000E+000	2.94482E-003	2.07950E+000	0.00000E+000	0.00000E+000	9	...........
	1446	7235	4.26464E+000	6.90677E-004	0.00000E+000	2.94549E-003	2.07950E+000	0.00000E+000	0.00000E+000	9	...........
	1447	7240	4.26556E+000	6.90679E-004	0.00000E+000	2.94614E-003	2.07950E+000	0.00000E+000	0.00000E+000	9	...........
	1448	7245	4.26652E+000	6.90678E-004	0.00000E+000	2.94680E-003	2.07950E+000	0.00000E+000	0.00000E+000	9	...........
	1449	7250	4.26747E+000	6.90678E-004	0.00000E+000	2.94745E-003	2.07950E+000	0.00000E+000	0.00000E+000	9	...........
	1450	7255	4.26847E+000	6.90677E-004	0.00000E+000	2.94813E-003	2.07950E+000	0.00000E+000	0.00000E+000	9	...........
	1451	7260	4.26944E+000	6.90676E-004	0.00000E+000	2.94880E-003	2.07950E+000	0.00000E+000	0.00000E+000	9	...........
	1452	7265	4.27040E+000	6.90677E-004	0.00000E+000	2.94947E-003	2.07950E+000	0.00000E+000	0.00000E+000	9	...........
	1453	7270	4.27138E+000	6.90678E-004	0.00000E+000	2.95014E-003	2.07950E+000	0.00000E+000	0.00000E+000	9	...........
	1454	7275	4.27236E+000	6.90677E-004	0.00000E+000	2.95082E-003	2.07950E+000	0.00000E+000	0.00000E+000	9	...........
	1455	7280	4.27332E+000	6.90677E-004	0.00000E+000	2.95148E-003	2.07950E+000	0.00000E+000	0.00000E+000	9	...........
	1456	7285	4.27429E+000	6.90677E-004	0.00000E+000	2.95215E-003	2.07950E+000	0.00000E+000	0.00000E+000	9	...........
	1457	7290	4.27528E+000	6.90677E-004	0.00000E+000	2.95283E-003	2.07950E+000	0.00000E+000	0.00000E+000	9	...........
	1458	7295	4.27624E+000	6.90678E-004	0.00000E+000	2.95351E-003	2.07950E+000	0.00000E+000	0.00000E+000	9	...........
	1459	7300	4.27721E+000	6.90676E-004	0.00000E+000	2.95417E-003	2.07950E+000	0.00000E+000	0.00000E+000	9	...........
	1460	7305	4.27816E+000	6.90676E-004	0.00000E+000	2.95482E-003	2.07950E+000	0.00000E+000	0.00000E+000	9	...........
	1461	7310	4.27913E+000	6.90676E-004	0.00000E+000	2.95549E-003	2.07950E+000	0.00000E+000	0.00000E+000	9	...........
	1462	7315	4.28010E+000	6.90677E-004	0.00000E+000	2.95617E-003	2.07950E+000	0.00000E+000	0.00000E+000	9	...........
	1463	7320	4.28110E+000	6.90678E-004	0.00000E+000	2.95686E-003	2.07950E+000	0.00000E+000	0.00000E+000	9	...........
	1464	7325	4.28209E+000	6.90678E-004	0.00000E+000	2.95754E-003	2.07950E+000	0.00000E+000	0.00000E+000	9	...........
	1465	7330	4.28307E+000	6.90676E-004	0.00000E+000	2.95821E-003	2.07950E+000	0.00000E+000	0.00000E+000	9	...........
	1466	7335	4.28405E+000	6.90677E-004	0.00000E+000	2.95889E-003	2.07950E+000	0.00000E+000	0.00000E+000	9	...........
	1467	7340	4.28505E+000	6.90677E-004	0.00000E+000	2.95959E-003	2.07950E+000	0.00000E+000	0.00000E+000	9	...........
	1468	7345	4.28604E+000	6.90677E-004	0.00000E+000	2.96027E-003	2.07950E+000	0.00000E+000	0.00000E+000	9	...........
	1469	7350	4.28702E+000	6.90677E-004	0.00000E+000	2.96095E-003	2.07950E+000	0.00000E+000	0.00000E+000	9	...........
	1470	7355	4.28803E+000	6.90677E-004	0.00000E+000	2.96164E-003	2.07950E+000	0.00000E+000	0.00000E+000	9	...........
	1471	7360	4.28903E+000	6.90676E-004	0.00000E+000	2.96233E-003	2.07950E+000	0.00000E+000	0.00000E+000	9	...........
	1472	7365	4.29002E+000	6.90678E-004	0.00000E+000	2.96302E-003	2.07950E+000	0.00000E+000	0.00000E+000	9	...........
	1473	7370	4.29101E+000	6.90678E-004	0.00000E+000	2.96371E-003	2.07950E+000	0.00000E+000	0.00000E+000	9	...........
	1474	7375	4.29201E+000	6.90678E-004	0.00000E+000	2.96440E-003	2.07950E+000	0.00000E+000	0.00000E+000	9	...........
	1475	7380	4.29295E+000	6.90679E-004	0.00000E+000	2.96505E-003	2.07950E+000	0.00000E+000	0.00000E+000	9	...........
	1476	7385	4.29395E+000	6.90678E-004	0.00000E+000	2.96573E-003	2.07950E+000	0.00000E+000	0.00000E+000	9	...........
	1477	7390	4.29496E+000	6.90676E-004	0.00000E+000	2.96643E-003	2.07950E+000	0.00000E+000	0.00000E+000	9	...........
	1478	7395	4.29596E+000	6.90678E-004	0.00000E+000	2.96713E-003	2.07950E+000	0.00000E+000	0.00000E+000	9	...........
	1479	7400	4.29698E+000	6.90678E-004	0.00000E+000	2.96783E-003	2.07950E+000	0.00000E+000	0.00000E+000	9	...........
	1480	7405	4.29798E+000	6.90678E-004	0.00000E+000	2.96852E-003	2.07950E+000	0.00000E+000	0.00000E+000	9	...........
	1481	7410	4.29899E+000	6.90678E-004	0.00000E+000	2.96922E-003	2.07950E+000	0.00000E+000	0.00000E+000	9	...........
	1482	7411.92	4.29967E+000	6.90678E-004	0.00000E+000	2.96969E-003	2.07950E+000	0.00000E+000	0.00000E+000	9	...........
